																												Custom Scientific,BS1				Custom Scientific, BS4				Newport AR.14		Melles Griot BBDS		Melles Griot single layer MGF2		Optimax XBBAR	
FSS99_106_45		FSS99_500_0		NaHG		Ag1		Aluminum		X1_Silver		Gold		Bare Gold		AR_Vis		AR		ARIR		Cold Stop		DM Window		ALPAO		TT-LGS,refl		TT-LGS,trans		WFS,trans		WFS, refl				high reflectivity		AR coating		AR coating	
Wvl. (um)       Refl. (%)		Wvl. (um)	Refl (%)	Wvl (um)	Refl (%)	Wvl (μm)	Refl (%)	Wvl (um)	Refl (%)	Wvl (um)	Refl (%)	Wvl (um)	Refl (%)	Wvl (μ)	Refl (%)	Wvl (μm)	Trans %	Wvl (um)	Trans (%)	Wvl (um)	Trans (%)	Wvl (um)	Trans (%)	Wv (μm)	Trans %	Wv (μm)	Refl %	Wvl 	Refl	Wvl	Trans	Wvl	Trans	Wvl	Refl	Wvl	Trans	wvl	refl	wvl	trans	wvl	trans
																																											
0.4	92.3571	0.402328	87.1959	0.332985	84.8677	0.4	97.085	0.220	91.5	0.400189	93.0175	0.414286	14.9682	0.225	28.521	0.589	99.5	0.400	30.00	0.200	97.00	0.4	95.00	0.502456	99.523	0.403906	96.534	0.4	100	0.4	0	0.402596	0.239	0.402596	99.761	0.4	97.088	0.316	90	0.401	97.799	0.436089	97.01
0.425	92.5623	0.406302	88.6186	0.335522	88.254	0.4175	97.673	0.240	91.9	0.403333	93.3333	0.442857	17.5159	0.258	35.563	0.629289	99.5	0.420	60.00	0.250	97.00	0.45	95.00	0.508135	99.201	0.407812	97.096	0.412747	99.706	0.412747	0.294	0.402596	3.11	0.402596	96.89	0.403571	97.558	0.324	99.469	0.421	98.095	0.443347	98.175
0.45	94.9134	0.408935	89.7938	0.343134	92.0635	0.442	98.08	0.260	92.2	0.405853	93.6491	0.461905	20.3822	0.289	38.028	0.65272	99.538	0.500	97.98	0.300	97.00	0.5	95.00	0.513903	98.952	0.415625	97.479	0.415933	99.706	0.415933	0.294	0.405192	2.392	0.405192	97.608	0.412143	98.358	0.331	99.807	0.455	98.434	0.452419	99.161
0.475	96.987	0.414269	91.2165	0.353284	93.7566	0.4665	98.276	0.280	92.3	0.408998	93.9649	0.47619	23.2484	0.313	38.028	0.673222	99.754	0.520	98.71	0.350	97.00	0.55	95.00	0.516811	98.848	0.423438	97.849	0.42868	100	0.42868	0	0.407787	32.297	0.407787	67.703	0.421429	98.96	0.35	99.952	0.499	98.688	0.463306	99.643
0.5	98.0909	0.419571	93.0722	0.36597	95.1323	0.498	98.382	0.300	92.3	0.41402	94.3158	0.490476	28.0255	0.331	36.62	0.70251	99.815	0.540	99.26	0.400	97.00	0.6	95.00	0.522818	98.797	0.439062	98.26	0.43824	100	0.43824	0	0.410383	33.254	0.410383	66.746	0.430714	99.409	0.436	99.952	0.538	98.794	0.474194	99.79
0.525	98.3455	0.427618	94.6186	0.368507	95.3439	0.526	98.307	0.315	92.4	0.417794	94.7018	0.5	32.4841	0.359	36.62	0.734728	99.815	0.560	99.56	0.450	97.00	0.65	95.00	0.528951	98.848	0.470312	98.548	0.43824	68.529	0.43824	31.471	0.412979	70.335	0.412979	29.665	0.445	99.726	0.457	99.758	0.591	98.751	0.492339	99.685
0.55	98.3636	0.439755	96.0412	0.378657	94.2857	0.575	98.08	0.320	92.4	0.421561	94.9825	0.509524	36.6242	0.401	38.732	0.775732	99.815	0.580	99.65	0.500	97.00	0.7	95.00	0.53521	99.004	0.501562	98.671	0.441426	99.118	0.441426	0.882	0.415575	1.914	0.415575	98.086	0.463571	99.814	0.476	99.662	0.654	98.476	0.506855	99.601
0.575	98.2749	0.450574	96.9072	0.383731	93.0159	0.589	97.975	0.340	92.5	0.425329	95.2632	0.514286	42.3567	0.421	39.437	0.819665	99.815	0.600	99.59	0.550	97.00	0.75	95.00	0.544566	99.211	0.517188	98.712	0.444613	100	0.444613	0	0.418171	54.785	0.418171	45.215	0.485714	99.792	0.502	99.758	0.699	98.116	0.521371	99.559
0.6	97.9033	0.4682	97.7113	0.393881	91.746	0.687	97.176	0.360	92.5	0.429096	95.5439	0.52381	45.2229	0.438	39.437	0.869456	99.815	0.620	99.45	0.600	97.00	0.8	95.00	0.547677	99.274	0.548438	98.658	0.4478	79.412	0.4478	20.588	0.423362	3.828	0.423362	96.172	0.500714	99.737	0.552	99.855			0.548589	99.622
0.625	97.319	0.48721	98.2062	0.401493	90.582	0.7885	96.558	0.380	92.5	0.432862	95.7895	0.528571	48.4076	0.46	38.732	0.922176	99.785	0.640	99.30	0.650	97.00	0.85	95.00	0.553772	99.294	0.579687	98.548	0.450986	89.412	0.450986	10.588	0.425958	1.196	0.425958	98.804	0.522143	99.715	0.604	99.855			0.572177	99.696
0.65	96.2121	0.514389	98.6392	0.411642	90.7937	0.8235	96.422	0.400	92.4	0.437252	96.0351	0.533333	56.3694	0.482	39.789	0.977824	99.785	0.660	99.16	0.700	97.00	0.9	95.00	0.562838	99.263	0.603125	98.425	0.454173	100	0.454173	0	0.428554	2.871	0.428554	97.129	0.547857	99.737	0.657	99.71			0.595766	99.727
0.675	95.5387	0.544311	98.7629	0.416716	91.4286	0.8445	96.392	0.450	92.2	0.441643	96.2807	0.533333	56.3694	0.502	48.239	1.06569	99.723	0.680	99.05	0.750	97.00	0.95	95.00	0.571805	99.149	0.630469	98.274	0.45736	99.118	0.45736	0.882	0.433745	16.029	0.433745	83.971	0.574286	99.792	0.709	99.807			0.628427	99.696
0.7	95.6775	0.570157	98.8247	0.424328	92.5926	0.876	96.482	0.500	91.8	0.447912	96.5965	0.538095	64.6497	0.514	59.507	1.124268	99.538	0.700	98.98	0.800	97.00	1	95.00	0.577774	99.066	0.653906	98.11	0.460546	99.706	0.460546	0.294	0.436341	7.895	0.436341	92.105	0.599286	99.858	0.759	99.807			0.65746	99.643
0.725	96.6591	0.598724	98.8866	0.434478	94.0741	0.918	96.663	0.550	91.5	0.4523	96.807	0.547619	67.5159	0.535	76.761	1.188703	99.138	0.720	98.95	0.850	97.00	1.05	95.00	0.586828	99.024	0.68125	97.932	0.463733	83.529	0.463733	16.471	0.441533	27.99	0.441533	72.01	0.617143	99.858	0.851	99.807			0.682863	99.633
0.75	97.555	0.62729	98.9485	0.447164	95.873	0.946	96.829	0.600	91.1	0.456059	96.9474	0.557143	73.5669	0.58	88.028	1.250209	98.492	0.740	98.93	0.900	97.00	1.1	95.00	0.602078	99.087	0.716406	97.74	0.46692	72.647	0.46692	27.353	0.44932	6.459	0.44932	93.541	0.649286	99.781	0.914	99.71			0.735484	99.696
0.775	98.064	0.657227	98.8866	0.462388	97.037	0.995	96.754	0.650	90.5	0.461693	97.0877	0.566667	76.7516	0.589	89.085	1.288285	97.908	0.760	98.92	0.950	97.00	1.15	95.00	0.614343	99.190	0.763281	97.589	0.470106	83.824	0.470106	16.176	0.451916	27.99	0.451916	72.01	0.670714	99.639	0.951	99.807			0.771774	99.78
0.8	98.3813	0.70213	98.8247	0.480149	97.8836	1.0475	96.874	0.700	89.7	0.46795	97.193	0.57619	81.5287	0.633	93.31			0.780	98.91	1.000	99.70	1.2	95.00	0.620476	99.242	0.814062	97.466	0.470106	53.529	0.470106	46.471	0.454512	9.33	0.454512	90.67	0.699286	99.277	1.001	99.758			0.804435	99.811
0.825	98.6217	0.742955	98.701	0.502985	98.4127	1.1945	97.357	0.750	88.6	0.473583	97.3333	0.585714	83.758	0.714	96.83			0.800	98.89	1.050	99.70	1.25	95.00	0.629606	99.263	0.841406	97.425	0.473293	53.529	0.473293	46.471	0.457108	21.531	0.457108	78.469			1.05	99.903			0.829839	99.801
0.85	98.8268	0.78379	98.4536	0.530896	98.836	1.3835	97.884	0.800	86.7	0.476086	97.3684	0.6	86.9427	0.818	98.24			0.820	98.87	1.100	99.70	1.3	95.00	0.641682	99.211	0.857031	97.644	0.47648	60	0.47648	40	0.459703	0.957	0.459703	99.043			1.069	99.903			0.8625	99.685
0.875	98.971	0.816453	98.3299	0.556269	98.9418	1.632	98.337	0.850	86.7	0.481717	97.4737	0.619048	90.4459	0.907	98.59			0.840	98.83	1.150	99.70	1.35	95.00	0.650661	99.107	0.86875	97.712	0.479666	76.471	0.479666	23.529	0.464895	0.478	0.464895	99.522			1.111	99.662			0.889718	99.528
0.9	99.0839	0.842308	98.268	0.599403	99.1534	1.835	98.593	0.900	89.1	0.489224	97.5789	0.647619	92.6752	1.153	98.59			0.860	98.78	1.200	99.70	1.4	95.00	0.662624	98.962	0.892187	97.575	0.479666	69.118	0.479666	30.882	0.472682	6.459	0.472682	93.541			1.155	97.971			0.91875	99.255
0.925	99.1567	0.879052	98.1443	0.642537	99.0476	2.003	98.729	0.950	92.4	0.493603	97.6491	0.685714	94.586	1.748	98.94			0.880	98.72	1.250	99.70	1.45	95.00	0.674575	98.806	0.93125	97.466	0.482853	99.706	0.482853	0.294	0.477874	3.11	0.477874	96.89			1.184	90.048			0.967742	98.689
0.95	99.2161	0.904916	97.9588	0.698358	99.1534	2.15	98.729	1.000	94.0	0.497982	97.7193	0.728571	95.8599	2.205	98.94			0.900	98.65	1.300	99.70	1.5	95.00	0.689573	98.661	0.99375	97.521	0.498786	100	0.498786	0	0.485661	58.373	0.485661	41.627							1.004032	98.143
0.975	99.2277	0.934843	98.0206	0.751642	99.0476	2.2935	98.729	1.500	97.4	0.501107	97.7193	0.77619	96.4968	2.848	98.94			0.920	98.58	1.350	99.70	1.55	95.00	0.70165	98.609	1.048437	97.644	0.514719	100	0.514719	0	0.493449	2.632	0.493449	97.368							1.03125	97.682
1	99.2373	0.957977	97.9588	0.81	98.9418	2.3985	98.729	2.000	97.8	0.503612	97.7895	0.819048	96.8153	4.387	98.94			0.940	98.50	1.400	99.70	1.6	95.00	0.704672	98.599	1.11875	97.877	0.552959	99.706	0.552959	0.294	0.49864	16.986	0.49864	83.014							1.054839	97.273
1.025	99.2289	0.972962	97.7113	0.863284	98.7302	2.5	98.759	3.000	98.0	0.50736	97.7544	0.866667	97.1338	5.532	98.944			0.960	98.42	1.450	99.70	1.65	95.00	0.719884	98.630	1.165625	98.014	0.591199	99.706	0.591199	0.294	0.501236	44.976	0.501236	55.024							1.069355	97.01
1.05	99.2205	0.985216	97.5876	0.919104	98.4127			4.000	98.2	0.511112	97.7895	0.909524	97.4522	7.68	98.944			0.980	98.34	1.500	99.70	1.7	95.00	0.741292	98.764	1.185156	98.082	0.594385	92.941	0.594385	7.059	0.501236	68.66	0.501236	31.34								
1.075	99.2072	0.998822	97.5876	0.98	98.2011			5.000	98.4	0.516116	97.8596	0.957143	97.7707	9.92	98.944			1.000	98.27	1.550	99.70	1.75	95.00	0.78101	98.982	1.192969	97.89	0.600759	97.941	0.600759	2.059	0.509023	59.569	0.509023	40.431								
1.1	99.179			1.03836	97.5661			6.000	98.5	0.519864	97.8246	1.00476	97.7707					1.020	98.20	1.600	99.70	1.8	95.00	0.820602	99.096	1.267187	98.055	0.603945	100	0.603945	0	0.511619	42.823	0.511619	57.177								
1.125	99.1508			1.0891	97.1429			7.000	98.6	0.522991	97.8596	1.05238	98.0892					1.040	98.13	1.650	99.70	1.85	95.00	0.838887	99.158	1.333594	98.205	0.610319	98.529	0.610319	1.471	0.511619	27.512	0.511619	72.488								
1.15	99.1361			1.15	96.7196			8.000	98.7	0.527993	97.8947	1.09524	98.0892					1.060	98.08	1.700	99.70	1.9	95.00	0.872296	99.179	1.392187	98.315	0.616692	99.706	0.616692	0.294	0.514215	13.636	0.514215	86.364								
1.175	99.1267			1.19821	96.4021			9.000	98.7	0.534243	97.8947	1.14286	98.0892					1.080	98.03	1.750	99.70	1.95	95.00	0.948092	99.116	1.4625	98.425	0.619879	99.118	0.619879	0.882	0.524598	4.306	0.524598	95.694								
1.2	99.1146			1.2591	96.1905			10.000	98.7	0.540493	97.8947	1.19048	98.4076					1.100	98.00	1.800	99.70	2	95.00	1.039025	99.022	1.544531	98.548	0.642185	6.765	0.642185	93.235	0.52979	8.134	0.52979	91.866								
1.225	99.0909			1.33015	96.0847			15.000	98.9	0.546743	97.8947	1.2381	98.4076					1.120	97.97	1.850	99.70	2.05	95.00	1.154351	99.022	1.626562	98.644	0.654932	5	0.654932	95	0.532386	14.593	0.532386	85.407								
1.25	99.0671			1.39104	96.0847			20.000	99.0	0.552993	97.8947	1.28571	98.4076					1.140	97.96	1.900	99.70	2.1	95.00	1.254502	99.021	1.708594	98.753	0.667678	7.059	0.667678	92.941	0.534982	24.641	0.534982	75.359								
1.275	99.044			1.4697	96.4021			30.000	99.2	0.559243	97.8947	1.33333	98.4076					1.160	97.95	1.950	99.70	2.15	95.00	1.366742	98.979	1.790625	98.822	0.680425	4.706	0.680425	95.294	0.534982	45.933	0.534982	54.067								
1.3	99.024			1.52552	96.5079					0.565493	97.8947	1.38095	98.4076					1.180	97.96	2.000	99.70	2.2	95.00	1.466868	98.958	1.841406	98.89	0.696358	6.471	0.696358	93.529	0.534982	63.397	0.534982	36.603								
1.325	99.0039			1.5991	96.8254					0.571118	97.8947	1.42857	98.4076					1.200	97.97	2.050	99.70	2.25	95.00	1.536671	98.957	1.849219	98.616	0.712291	4.706	0.712291	95.294	0.534982	70.096	0.534982	29.904								
1.35	98.9681			1.66761	97.1429					0.577368	97.8947	1.47619	98.4076					1.220	97.99	2.100	99.70	2.3	95.00	1.606523	98.998	1.849219	98.904	0.731411	5.88200000000001	0.731411	94.118	0.537577	83.254	0.537577	16.746								
1.375	98.9285			1.75134	97.2487					0.583618	97.8947	1.52381	98.4076					1.240	98.02	2.150	99.70	2.35	95.00	1.682483	99.071	1.857031	98.918	0.750531	4.706	0.750531	95.294	0.542769	66.507	0.542769	33.493								
1.4	98.8889			1.82493	97.672					0.589868	97.8947	1.57143	98.4076					1.260	98.06	2.200	99.70	2.4	95.00	1.791928	99.226	1.864844	98.644	0.772838	6.176	0.772838	93.824	0.542769	58.373	0.542769	41.627								
1.425	98.8543			1.90358	97.7778					0.596118	97.8947	1.61905	98.7261					1.280	98.10	2.250	99.70	2.45	95.00	1.904407	99.381	1.86875	98.918	0.795144	4.706	0.795144	95.294	0.545365	49.043	0.545365	50.957								
1.45	98.8208			1.97209	97.8836					0.602368	97.8947	1.66667	98.7261					1.300	98.14	2.300	99.70	2.5	95.00	1.983377	99.432	1.86875	99.096	0.823824	5.58799999999999	0.823824	94.412	0.545365	38.278	0.545365	61.722								
1.475	98.7874			1.99746	97.9894					0.608616	97.8596	1.71429	98.7261					1.320	98.19	2.350	99.70			2.022831	99.432	1.880469	98.918	0.84613	5	0.84613	95	0.553152	26.316	0.553152	73.684								
1.5	98.7521									0.614864	97.8246	1.7619	98.7261					1.340	98.25	2.400	99.70			2.095605	99.380	1.892187	99.082	0.86525	5	0.86525	95	0.555748	31.579	0.555748	68.421								
1.525	98.7167									0.620489	97.8246	1.80952	98.7261					1.360	98.30	2.450	99.70			2.18038	99.213	1.896093	98.836	0.88437	4.706	0.88437	95.294	0.555748	36.842	0.555748	63.158								
1.55	98.6734									0.626739	97.8246	1.85714	98.7261					1.380	98.36	2.500	99.70			2.243861	99.005	1.9	99.082	0.906677	7.941	0.906677	92.059	0.558344	54.067	0.558344	45.933								
1.575	98.6076									0.632987	97.7895	1.90476	98.7261					1.400	98.43	2.550	99.70			2.331394	98.611	1.907812	98.795	0.909863	17.941	0.909863	82.059	0.560939	64.833	0.560939	35.167								
1.6	98.5418									0.63861	97.7544	1.95238	98.7261					1.420	98.49	2.600	99.70			2.412744	98.123	1.915625	98.945	0.925797	94.412	0.925797	5.588	0.563535	50.239	0.563535	49.761								
1.625	98.4965									0.64486	97.7544	2	98.7261					1.440	98.55	2.650	99.70			2.472888	97.666	1.919531	98.877	0.938543	55.882	0.938543	44.118	0.566131	41.388	0.566131	58.612								
1.65	98.4589									0.651107	97.7193	2.04762	98.7261					1.460	98.62	2.700	99.70			2.493956	97.521	1.927344	99	0.954477	95.294	0.954477	4.706	0.568727	32.057	0.568727	67.943								
1.675	98.4178									0.657355	97.6842	2.09524	98.7261					1.480	98.68	2.750	99.70					1.935156	98.945	0.967223	96.471	0.967223	3.529	0.571323	16.986	0.571323	83.014								
1.7	98.3624									0.66048	97.6842	2.14286	98.7261					1.500	98.75	2.800	99.70					1.950781	98.959	0.97997	95.294	0.97997	4.706	0.571323	6.938	0.571323	93.062								
1.725	98.307									0.666107	97.7193	2.19048	98.7261					1.520	98.82	2.850	99.70					1.9625	98.973	0.992716	90.882	0.992716	9.118	0.57911	2.871	0.57911	97.129								
1.75	98.2553									0.672357	97.7193	2.2381	98.7261					1.540	98.88	2.900	99.70					1.978125	98.973	1.005463	95.588	1.005463	4.412	0.586897	0.5	0.586897	99.5								
1.775	98.2199									0.678605	97.6842	2.28571	98.7261					1.560	98.95	2.950	99.70					2.001562	99	1.018209	97.353	1.018209	2.647	0.597281	0.478	0.597281	99.522								
1.8	98.1845									0.684855	97.6842	2.33333	98.7261					1.580	99.01	3.000	99.70					2.025	99.014	1.030956	96.176	1.030956	3.824	0.612855	0.00E+00	0.612855	100								
1.825	98.1359									0.691105	97.6842	2.38095	98.7261					1.600	99.08							2.060156	99.027	1.040516	95	1.040516	5	0.623239	0.239	0.623239	99.761								
1.85	98.074									0.697355	97.6842	2.42857	98.7261					1.620	99.14							2.099219	99.055	1.053262	96.471	1.053262	3.529	0.631026	0.00E+00	0.631026	100								
1.875	98.012									1.39	96	2.47619	98.7261					1.640	98.29							2.169531	99.096	1.059636	97.059	1.059636	2.941	0.649197	0.00E+00	0.649197	100								
1.9	97.9677									2	97.98	2.52381	98.7261					1.660	98.28							2.251562	99.137	1.072382	96.471	1.072382	3.529	0.669963	0.00E+00	0.669963	100								
1.925	97.9276											2.57143	98.7261					1.680	98.27							2.314062	99.192	1.081942	96.176	1.081942	3.824	0.698517	0.00E+00	0.698517	100								
1.95	97.8831																	1.700	98.26									1.101062	95	1.101062	5	0.706304	0.00E+00	0.706304	100								
1.975	97.833																	1.720	98.25									1.110622	95.882	1.110622	4.118	0.7089	0.957	0.7089	99.043								
2	97.7832																	1.740	98.23									1.123369	97.353	1.123369	2.647	0.711496	0.00E+00	0.711496	100								
2.025	97.7403																	1.760	98.22									1.132929	96.765	1.132929	3.235	0.721879	0.00E+00	0.721879	100								
2.05	97.6973																	1.780	98.21									1.142489	94.118	1.142489	5.882	0.729666	0.00E+00	0.729666	100								
2.075	97.6383																	1.800	98.20									1.152049	91.765	1.152049	8.235	0.729666	1.914	0.729666	98.086								
2.1	97.5764																	1.820	98.19									1.161608	94.412	1.161608	5.588	0.734858	0.239	0.734858	99.761								
2.125	97.5184																	1.840	98.18									1.174355	96.176	1.174355	3.824	0.760816	0.239	0.760816	99.761								
2.15	97.4826																	1.860	98.17									1.190288	96.471	1.190288	3.529	0.80754	0.239	0.80754	99.761								
2.175	97.4468																	1.880	98.16									1.212595	97.647	1.212595	2.353	0.872435	0.239	0.872435	99.761								
2.2	97.4109																	1.900	98.15									1.228528	95.588	1.228528	4.412	0.898393	0.239	0.898393	99.761								
2.225	97.3882																	1.920	98.14									1.238088	93.529	1.238088	6.471	0.913968	0.957	0.913968	99.043								
2.25	97.3681																	1.940	98.13									1.250835	95.588	1.250835	4.412	0.91916	3.589	0.91916	96.411								
2.275	97.3481																	1.960	98.12									1.269954	97.353	1.269954	2.647	0.921755	6.938	0.921755	93.062								
2.3	97.328																	1.980	98.10									1.279514	97.353	1.279514	2.647	0.924351	11.244	0.924351	88.756								
2.325	97.3102																	2.000	98.09									1.292261	95.882	1.292261	4.118	0.926947	16.507	0.926947	83.493								
2.35	97.3191																	2.020	98.08									1.308194	93.824	1.308194	6.176	0.926947	23.206	0.926947	76.794								
2.375	97.3279																	2.040	98.07									1.327314	96.176	1.327314	3.824	0.929543	28.469	0.929543	71.531								
2.4	97.3372																	2.060	98.06									1.346434	97.059	1.346434	2.941	0.932139	32.775	0.932139	67.225								
2.425	97.3473																	2.080	98.05									1.365554	97.941	1.365554	2.059	0.934734	36.124	0.934734	63.876								
2.45	97.3576																	2.100	98.04									1.3783	97.941	1.3783	2.059	0.93733	39.713	0.93733	60.287								
2.475	97.3898																	2.120	98.03									1.400607	99.118	1.400607	0.882	0.942522	46.172	0.942522	53.828								
2.5	97.4221																	2.140	98.02									1.422914	98.529	1.422914	1.471	0.945118	52.392	0.945118	47.608								
2.525	97.4486																	2.160	98.01									1.442033	99.706	1.442033	0.294	0.945118	61.005	0.945118	38.995								
2.55	97.4737																	2.180	98.00									1.4739	100	1.4739	0	0.945118	73.923	0.945118	26.077								
2.575	97.4912																	2.200	97.99									1.499393	99.412	1.499393	0.588	0.947713	85.407	0.947713	14.593								
2.6	97.5079																	2.220	97.97									1.508953	97.941	1.508953	2.059	0.950309	92.584	0.950309	7.416								
3	97.5																	2.240	97.96									1.515326	96.765	1.515326	3.235	0.952905	94.498	0.952905	5.502								
4	97.5																	2.260	97.95									1.524886	98.235	1.524886	1.765	0.955501	93.301	0.955501	6.699								
5	97.5																	2.280	97.94									1.534446	99.412	1.534446	0.588	0.965884	94.498	0.965884	5.502								
6	97.5																	2.300	97.93									1.547193	99.412	1.547193	0.588	0.973671	94.019	0.973671	5.98099999999999								
																		2.320	97.92									1.569499	98.824	1.569499	1.176	0.984054	94.258	0.984054	5.742								
																		2.340	97.91									1.585432	97.647	1.585432	2.353	0.991842	94.019	0.991842	5.98099999999999								
																		2.360	97.90									1.607739	98.529	1.607739	1.471	1.010012	94.019	1.010012	5.98099999999999								
																		2.380	97.89									1.633232	99.118	1.633232	0.882	1.0178	93.78	1.0178	6.22								
																		2.400	97.88									1.655539	97.941	1.655539	2.059	1.030779	94.258	1.030779	5.742								
																		2.420	97.87									1.665099	95.882	1.665099	4.118	1.043758	94.258	1.043758	5.742								
																		2.440	97.86									1.674659	92.941	1.674659	7.059	1.051545	93.78	1.051545	6.22								
																		2.460	97.85									1.687405	95.882	1.687405	4.118	1.059333	94.258	1.059333	5.742								
																		2.480	97.83									1.696965	97.941	1.696965	2.059	1.077503	94.258	1.077503	5.742								
																		2.500	97.82									1.722458	99.118	1.722458	0.882	1.090482	94.019	1.090482	5.98099999999999								
																												1.747951	98.529	1.747951	1.471	1.103461	93.78	1.103461	6.22								
																												1.760698	96.471	1.760698	3.529	1.121632	93.78	1.121632	6.22								
																												1.770258	96.471	1.770258	3.529	1.134611	94.258	1.134611	5.742								
																												1.779818	96.176	1.779818	3.824	1.152781	94.258	1.152781	5.742								
																												1.789378	97.647	1.789378	2.353	1.16576	94.019	1.16576	5.98099999999999								
																												1.802125	98.235	1.802125	1.765	1.189123	94.019	1.189123	5.98099999999999								
																												1.811684	97.059	1.811684	2.941	1.207293	93.541	1.207293	6.459								
																												1.824431	94.412	1.824431	5.588	1.241038	93.541	1.241038	6.459								
																												1.833991	96.765	1.833991	3.235	1.259209	94.019	1.259209	5.98099999999999								
																												1.843551	98.824	1.843551	1.176	1.282571	94.258	1.282571	5.742								
																												1.856297	99.412	1.856297	0.588	1.316317	94.019	1.316317	5.98099999999999								
																												1.90091	99.706	1.90091	0.294	1.34487	94.258	1.34487	5.742								
																												1.932777	99.118	1.932777	0.882	1.386403	94.019	1.386403	5.98099999999999								
																												1.95827	98.235	1.95827	1.765	1.453894	94.019	1.453894	5.98099999999999								
																												1.971017	96.765	1.971017	3.235	1.503214	94.258	1.503214	5.742								
																												1.983763	95.294	1.983763	4.706	1.534364	94.258	1.534364	5.742								
																												2.002883	97.353	2.002883	2.647	1.560322	94.019	1.560322	5.98099999999999								
																												2.018816	98.235	2.018816	1.765	1.599259	93.78	1.599259	6.22								
																												2.037936	97.353	2.037936	2.647	1.625217	94.258	1.625217	5.742								
																												2.047496	96.176	2.047496	3.824	1.666749	93.78	1.666749	6.22								
																												2.053869	95.588	2.053869	4.412	1.687516	93.78	1.687516	6.22								
																												2.066616	97.353	2.066616	2.647	1.726453	94.498	1.726453	5.502								
																												2.076176	98.824	2.076176	1.176	1.749815	94.737	1.749815	5.26300000000001								
																												2.101669	99.412	2.101669	0.588	1.788752	94.258	1.788752	5.742								
																												2.127163	99.118	2.127163	0.882	1.91335	94.498	1.91335	5.502								
																												2.146282	98.235	2.146282	1.765	1.975649	94.019	1.975649	5.98099999999999								
																												2.162216	97.647	2.162216	2.353	2.014586	94.258	2.014586	5.742								
																												2.178149	98.529	2.178149	1.471	2.069098	94.498	2.069098	5.502								
																												2.203642	99.412	2.203642	0.588	2.113226	94.019	2.113226	5.98099999999999								
																												2.238695	99.118	2.238695	0.882	2.14178	94.498	2.14178	5.502								
																												2.273748	97.941	2.273748	2.059	2.170334	94.737	2.170334	5.26300000000001								
																												2.292868	95.588	2.292868	4.412	2.235229	94.737	2.235229	5.26300000000001								
																												2.321548	94.412	2.321548	5.588	2.279357	94.258	2.279357	5.742								
																												2.353414	95	2.353414	5	2.349444	94.258	2.349444	5.742								
																												2.394841	95.588	2.394841	4.412	2.388381	94.498	2.388381	5.502								
																												2.436267	96.765	2.436267	3.235	2.424722	94.737	2.424722	5.26300000000001								
																												2.474507	97.059	2.474507	2.941	2.468851	94.258	2.468851	5.742								
																												2.496813	97.059	2.496813	2.941	2.5	93.541	2.5	6.459								
