#trans_10_10	
#Infrared	Transmission
#um	%
	
0.900000	0.973927
0.900501	0.971604
0.901002	0.975187
0.901502	0.973288
0.902003	0.969448
0.902504	0.971296
0.903005	0.978117
0.903506	0.989906
0.904007	0.99437
0.904508	0.993548
0.905008	0.99383
0.905509	0.992674
0.906010	0.991102
0.906511	0.98398
0.907012	0.969633
0.907512	0.966527
0.908013	0.974212
0.908514	0.975547
0.909015	0.978281
0.909516	0.981711
0.910017	0.9794
0.910518	0.977248
0.911018	0.981152
0.911519	0.985694
0.912020	0.980588
0.912521	0.982055
0.913022	0.976783
0.913523	0.967915
0.914023	0.973553
0.914524	0.986689
0.915025	0.98387
0.915526	0.967932
0.916027	0.971342
0.916528	0.986569
0.917028	0.986632
0.917529	0.976323
0.918030	0.97757
0.918531	0.985133
0.919032	0.989404
0.919533	0.989647
0.920033	0.991453
0.920534	0.995306
0.921035	0.99447
0.921536	0.9918
0.922037	0.991345
0.922538	0.993819
0.923038	0.994367
0.923539	0.993271
0.924040	0.991898
0.924541	0.990907
0.925042	0.9908
0.925543	0.992666
0.926043	0.993132
0.926544	0.993572
0.927045	0.994572
0.927546	0.989427
0.928047	0.980586
0.928548	0.978006
0.929048	0.97731
0.929549	0.96989
0.93005	0.957253
0.930551	0.945439
0.931052	0.9263
0.931553	0.90095
0.932053	0.877586
0.932554	0.874158
0.933055	0.880104
0.933556	0.868179
0.934057	0.83125
0.934558	0.800821
0.935058	0.846082
0.935559	0.84359
0.93606	0.82858
0.936561	0.861723
0.937062	0.846821
0.937563	0.848591
0.938063	0.856117
0.938564	0.870981
0.939065	0.916932
0.939566	0.958119
0.940067	0.957847
0.940568	0.950799
0.941068	0.941106
0.941569	0.936276
0.94207	0.933042
0.942571	0.898964
0.943072	0.861388
0.943573	0.883642
0.944073	0.845213
0.944574	0.846564
0.945075	0.915399
0.945576	0.907656
0.946077	0.873466
0.946578	0.895466
0.947078	0.927498
0.947579	0.929587
0.94808	0.902627
0.948581	0.905969
0.949082	0.935782
0.949583	0.892714
0.950083	0.856589
0.950584	0.894779
0.951085	0.950778
0.951586	0.938647
0.952087	0.893769
0.952588	0.89381
0.953088	0.92851
0.953589	0.945725
0.95409	0.931738
0.954591	0.909239
0.955092	0.923301
0.955593	0.927324
0.956093	0.927729
0.956594	0.919641
0.957095	0.923387
0.957596	0.95359
0.958097	0.947012
0.958598	0.93653
0.959098	0.925829
0.959599	0.9301
0.9601	0.951764
0.960601	0.957553
0.961102	0.9632
0.961603	0.968086
0.962103	0.956192
0.962604	0.951838
0.963105	0.96778
0.963606	0.967649
0.964107	0.954401
0.964608	0.955528
0.965109	0.967929
0.965609	0.979409
0.96611	0.971723
0.966611	0.964708
0.967112	0.973821
0.967613	0.984432
0.968114	0.984731
0.968614	0.986527
0.969115	0.993014
0.969616	0.993054
0.970117	0.988643
0.970618	0.988621
0.971119	0.991618
0.971619	0.988528
0.97212	0.987922
0.972621	0.988048
0.973122	0.987631
0.973623	0.982076
0.974124	0.978504
0.974624	0.97819
0.975125	0.978224
0.975626	0.977516
0.976127	0.977797
0.976628	0.983749
0.977129	0.991366
0.977629	0.992058
0.97813	0.987662
0.978631	0.986805
0.979132	0.987582
0.979633	0.986489
0.980134	0.987616
0.980634	0.990497
0.981135	0.995678
0.981636	0.996335
0.982137	0.995185
0.982638	0.993455
0.983139	0.994467
0.983639	0.996939
0.98414	0.997796
0.984641	0.996847
0.985142	0.99669
0.985643	0.998276
0.986144	0.999372
0.986644	0.99932
0.987145	0.998687
0.987646	0.998563
0.988147	0.999278
0.988648	0.999777
0.989149	0.999742
0.989649	0.999367
0.99015	0.999163
0.990651	0.999487
0.991152	0.999705
0.991653	0.999797
0.992154	0.999744
0.992654	0.999457
0.993155	0.999415
0.993656	0.999751
0.994157	0.999901
0.994658	0.999938
0.995159	0.999925
0.995659	0.999874
0.99616	0.999898
0.996661	0.999923
0.997162	0.999902
0.997663	0.999873
0.998164	0.999856
0.998664	0.999881
0.999165	0.999843
0.999666	0.999783
1.00017	0.999823
1.00067	0.999904
1.00117	0.9998
1.00167	0.999397
1.00217	0.999205
1.00267	0.999557
1.00317	0.999856
1.00367	0.999811
1.00417	0.999708
1.00467	0.999804
1.00518	0.999827
1.00568	0.99978
1.00618	0.999851
1.00668	0.999892
1.00718	0.999874
1.00768	0.999788
1.00818	0.999712
1.00868	0.999637
1.00918	0.999385
1.00968	0.999365
1.01018	0.999639
1.01068	0.999844
1.01119	0.999906
1.01169	0.999825
1.01219	0.999754
1.01269	0.999873
1.01319	0.999939
1.01369	0.999955
1.01419	0.999917
1.01469	0.999887
1.01519	0.99987
1.01569	0.999857
1.01619	0.999931
1.01669	0.999925
1.0172	0.999889
1.0177	0.999919
1.0182	0.999974
1.0187	0.999917
1.0192	0.999724
1.0197	0.999754
1.0202	0.999914
1.0207	0.999959
1.0212	0.999946
1.0217	0.999901
1.0222	0.999918
1.0227	0.99986
1.02321	0.999749
1.02371	0.999588
1.02421	0.999678
1.02471	0.999918
1.02521	0.999964
1.02571	0.999946
1.02621	0.999948
1.02671	0.999942
1.02721	0.999858
1.02771	0.999846
1.02821	0.999914
1.02871	0.999928
1.02922	0.999963
1.02972	0.999987
1.03022	0.999997
1.03072	0.999993
1.03122	0.99997
1.03172	0.999969
1.03222	0.999992
1.03272	0.999999
1.03322	1
1.03372	1
1.03422	1
1.03472	1
1.03523	0.999999
1.03573	0.999993
1.03623	0.999974
1.03673	0.999932
1.03723	0.999917
1.03773	0.999953
1.03823	0.999986
1.03873	0.999986
1.03923	0.999974
1.03973	0.99997
1.04023	0.999975
1.04073	0.999988
1.04124	0.999998
1.04174	1
1.04224	1
1.04274	1
1.04324	1
1.04374	1
1.04424	1
1.04474	1
1.04524	1
1.04574	1
1.04624	1
1.04674	1
1.04725	1
1.04775	1
1.04825	0.999989
1.04875	0.999904
1.04925	0.999725
1.04975	0.999681
1.05025	0.999816
1.05075	0.99993
1.05125	0.999925
1.05175	0.999883
1.05225	0.999875
1.05275	0.999898
1.05326	0.999928
1.05376	0.999953
1.05426	0.999971
1.05476	0.999985
1.05526	0.999994
1.05576	0.999997
1.05626	0.999996
1.05676	0.999994
1.05726	0.999992
1.05776	0.999988
1.05826	0.999986
1.05876	0.999982
1.05927	0.99998
1.05977	0.999977
1.06027	0.999973
1.06077	0.999968
1.06127	0.999957
1.06177	0.999943
1.06227	0.999871
1.06277	0.999823
1.06327	0.99976
1.06377	0.999693
1.06427	0.999604
1.06477	0.99951
1.06528	0.999541
1.06578	0.999579
1.06628	0.999645
1.06678	0.999669
1.06728	0.999441
1.06778	0.999051
1.06828	0.999142
1.06878	0.999473
1.06928	0.999548
1.06978	0.999557
1.07028	0.999639
1.07078	0.999784
1.07129	0.99981
1.07179	0.999663
1.07229	0.999506
1.07279	0.99957
1.07329	0.999785
1.07379	0.999803
1.07429	0.999239
1.07479	0.998845
1.07529	0.999489
1.07579	0.99986
1.07629	0.999805
1.07679	0.999442
1.0773	0.998492
1.0778	0.998584
1.0783	0.99941
1.0788	0.999751
1.0793	0.999646
1.0798	0.998783
1.0803	0.997976
1.0808	0.998342
1.0813	0.998411
1.0818	0.998858
1.0823	0.999552
1.0828	0.999331
1.08331	0.997699
1.08381	0.997349
1.08431	0.998448
1.08481	0.998969
1.08531	0.998601
1.08581	0.995716
1.08631	0.993598
1.08681	0.996355
1.08731	0.998304
1.08781	0.999016
1.08831	0.99898
1.08881	0.99816
1.08932	0.997279
1.08982	0.996782
1.09032	0.995271
1.09082	0.996749
1.09132	0.99908
1.09182	0.998421
1.09232	0.993372
1.09282	0.99107
1.09332	0.995653
1.09382	0.997752
1.09432	0.996614
1.09482	0.994578
1.09533	0.994705
1.09583	0.992914
1.09633	0.993989
1.09683	0.997563
1.09733	0.996545
1.09783	0.993304
1.09833	0.993507
1.09883	0.993009
1.09933	0.989369
1.09983	0.987156
1.10033	0.990059
1.10083	0.990219
1.10134	0.990701
1.10184	0.988637
1.10234	0.986495
1.10284	0.986756
1.10334	0.988743
1.10384	0.98854
1.10434	0.984103
1.10484	0.987262
1.10534	0.988773
1.10584	0.983673
1.10634	0.979905
1.10684	0.98589
1.10735	0.990598
1.10785	0.983686
1.10835	0.976124
1.10885	0.978597
1.10935	0.985195
1.10985	0.985967
1.11035	0.974315
1.11085	0.96071
1.11135	0.958302
1.11185	0.97091
1.11235	0.972507
1.11285	0.945837
1.11336	0.923722
1.11386	0.935829
1.11436	0.955044
1.11486	0.920283
1.11536	0.891289
1.11586	0.893913
1.11636	0.831217
1.11686	0.810307
1.11736	0.855033
1.11786	0.898132
1.11836	0.881148
1.11886	0.834211
1.11937	0.825257
1.11987	0.847387
1.12037	0.850069
1.12087	0.884224
1.12137	0.858561
1.12187	0.776136
1.12237	0.71459
1.12287	0.772165
1.12337	0.810373
1.12387	0.804169
1.12437	0.883799
1.12487	0.866505
1.12538	0.734505
1.12588	0.731058
1.12638	0.829875
1.12688	0.881762
1.12738	0.841289
1.12788	0.810091
1.12838	0.834278
1.12888	0.835951
1.12938	0.813282
1.12988	0.804911
1.13038	0.880534
1.13088	0.949109
1.13139	0.957603
1.13189	0.943704
1.13239	0.915772
1.13289	0.883053
1.13339	0.80991
1.13389	0.737701
1.13439	0.619552
1.13489	0.572062
1.13539	0.72929
1.13589	0.813837
1.13639	0.87045
1.13689	0.9458
1.1374	0.936837
1.1379	0.914274
1.1384	0.898245
1.1389	0.928653
1.1394	0.953342
1.1399	0.921316
1.1404	0.907993
1.1409	0.881636
1.1414	0.884237
1.1419	0.90778
1.1424	0.933952
1.1429	0.957427
1.14341	0.934687
1.14391	0.861776
1.14441	0.822921
1.14491	0.841348
1.14541	0.852287
1.14591	0.861339
1.14641	0.8339
1.14691	0.799326
1.14741	0.820786
1.14791	0.899495
1.14841	0.927644
1.14891	0.895635
1.14942	0.866979
1.14992	0.850488
1.15042	0.903183
1.15092	0.915081
1.15142	0.912214
1.15192	0.891736
1.15242	0.848905
1.15292	0.874172
1.15342	0.924978
1.15392	0.907092
1.15442	0.910976
1.15492	0.934704
1.15543	0.924601
1.15593	0.921923
1.15643	0.950433
1.15693	0.962702
1.15743	0.950149
1.15793	0.942596
1.15843	0.953373
1.15893	0.947006
1.15943	0.954659
1.15993	0.955787
1.16043	0.952002
1.16093	0.967309
1.16144	0.976013
1.16194	0.97321
1.16244	0.972263
1.16294	0.985531
1.16344	0.986941
1.16394	0.985691
1.16444	0.98886
1.16494	0.982832
1.16544	0.975766
1.16594	0.976998
1.16644	0.982626
1.16694	0.984922
1.16745	0.988483
1.16795	0.988666
1.16845	0.988199
1.16895	0.990549
1.16945	0.991473
1.16995	0.992151
1.17045	0.989964
1.17095	0.989573
1.17145	0.992253
1.17195	0.991015
1.17245	0.98865
1.17296	0.988983
1.17346	0.982526
1.17396	0.972023
1.17446	0.980082
1.17496	0.989104
1.17546	0.988746
1.17596	0.994366
1.17646	0.997518
1.17696	0.991996
1.17746	0.977354
1.17796	0.975783
1.17846	0.986714
1.17896	0.991482
1.17947	0.985776
1.17997	0.987956
1.18047	0.994506
1.18097	0.990779
1.18147	0.973562
1.18197	0.958996
1.18247	0.974422
1.18297	0.991743
1.18347	0.994368
1.18397	0.986023
1.18447	0.977264
1.18498	0.979573
1.18548	0.990094
1.18598	0.995082
1.18648	0.993741
1.18698	0.989899
1.18748	0.979017
1.18798	0.970852
1.18848	0.976924
1.18898	0.987074
1.18948	0.991972
1.18998	0.993433
1.19048	0.991621
1.19098	0.991941
1.19149	0.993645
1.19199	0.99486
1.19249	0.996312
1.19299	0.992965
1.19349	0.988448
1.19399	0.992824
1.19449	0.9952
1.19499	0.993125
1.19549	0.99167
1.19599	0.992781
1.19649	0.994613
1.197	0.994264
1.1975	0.990643
1.198	0.991539
1.1985	0.987598
1.199	0.983083
1.1995	0.988946
1.2	0.992809
1.2005	0.99233
1.201	0.990917
1.2015	0.988389
1.202	0.988935
1.2025	0.993587
1.203	0.989341
1.2035	0.972076
1.204	0.967206
1.2045	0.97961
1.205	0.983641
1.2055	0.990553
1.206	0.994391
1.2065	0.99119
1.207	0.988411
1.2075	0.987985
1.208	0.988335
1.2085	0.989227
1.209	0.988455
1.2095	0.989225
1.21	0.991834
1.2105	0.994843
1.211	0.992188
1.2115	0.98908
1.212	0.991377
1.2125	0.993601
1.213	0.996424
1.2135	0.996543
1.214	0.993686
1.2145	0.992321
1.215	0.992808
1.2155	0.995132
1.216	0.997187
1.2165	0.996077
1.217	0.99595
1.2175	0.997096
1.218	0.994812
1.2185	0.992106
1.219	0.990466
1.2195	0.991583
1.22	0.993988
1.2205	0.995998
1.221	0.996194
1.2215	0.993346
1.222	0.992728
1.2225	0.9933
1.223	0.993927
1.2235	0.994328
1.224	0.995082
1.2245	0.996536
1.225	0.997142
1.2255	0.997253
1.226	0.997769
1.2265	0.997067
1.227	0.995698
1.2275	0.996904
1.228	0.998625
1.2285	0.999033
1.229	0.998634
1.2295	0.998275
1.23	0.998657
1.2305	0.999304
1.231	0.999556
1.2315	0.999526
1.232	0.999508
1.2325	0.99916
1.233	0.998666
1.2335	0.998902
1.234	0.999564
1.2345	0.999749
1.235	0.999692
1.2355	0.999715
1.236	0.999793
1.2365	0.999644
1.237	0.999593
1.2375	0.999791
1.238	0.999858
1.2385	0.999862
1.239	0.999918
1.2395	0.999964
1.24	0.999925
1.2405	0.999802
1.241	0.9998
1.2415	0.999925
1.242	0.99998
1.2425	0.999987
1.243	0.99999
1.2435	0.999968
1.244	0.999913
1.2445	0.999907
1.245	0.999907
1.2455	0.999911
1.246	0.999914
1.2465	0.99978
1.247	0.99979
1.2475	0.999744
1.248	0.999367
1.2485	0.999495
1.249	0.999484
1.2495	0.998827
1.25	0.999128
1.2505	0.999043
1.251	0.997771
1.2515	0.99837
1.252	0.9985
1.2525	0.996337
1.253	0.997168
1.2535	0.997973
1.254	0.99456
1.2545	0.995044
1.255	0.997462
1.2555	0.993386
1.256	0.992286
1.2565	0.996735
1.257	0.993328
1.2575	0.988927
1.258	0.994271
1.2585	0.993236
1.259	0.984542
1.2595	0.986571
1.26	0.988075
1.2605	0.976551
1.261	0.970141
1.2615	0.97293
1.262	0.964426
1.2625	0.951418
1.263	0.953095
1.2635	0.952615
1.264	0.940362
1.2645	0.937204
1.265	0.945212
1.2655	0.943574
1.266	0.935901
1.2665	0.944523
1.267	0.957035
1.2675	0.957608
1.268	0.920729
1.2685	0.828054
1.269	0.807357
1.2695	0.886342
1.27	0.948331
1.2705	0.969125
1.271	0.973099
1.2715	0.973424
1.272	0.970937
1.2725	0.970539
1.273	0.970855
1.2735	0.975236
1.274	0.972233
1.2745	0.974542
1.275	0.976873
1.2755	0.982799
1.276	0.980294
1.2765	0.980808
1.277	0.986208
1.2775	0.989149
1.278	0.989549
1.2785	0.987622
1.279	0.993159
1.2795	0.994921
1.28	0.993746
1.2805	0.992881
1.281	0.995852
1.2815	0.998373
1.282	0.997053
1.2825	0.995591
1.283	0.997761
1.2835	0.999097
1.284	0.998309
1.2845	0.996831
1.285	0.998134
1.2855	0.999567
1.286	0.999313
1.2865	0.998245
1.287	0.998394
1.2875	0.999236
1.288	0.998995
1.2885	0.997794
1.289	0.997407
1.2895	0.998582
1.29	0.999158
1.2905	0.999094
1.291	0.99858
1.2915	0.997406
1.292	0.997143
1.2925	0.998271
1.293	0.998939
1.2935	0.999033
1.294	0.998817
1.2945	0.998824
1.295	0.99824
1.2955	0.997023
1.296	0.997143
1.2965	0.997387
1.297	0.995621
1.2975	0.995047
1.298	0.99727
1.2985	0.998753
1.299	0.997873
1.2995	0.994912
1.3	0.993619
1.3005	0.992459
1.301	0.993247
1.3015	0.996794
1.302	0.997815
1.3025	0.995137
1.303	0.991097
1.3035	0.986343
1.304	0.983053
1.3045	0.986283
1.305	0.994649
1.3055	0.996294
1.306	0.993715
1.3065	0.98563
1.307	0.985539
1.3075	0.989691
1.308	0.98512
1.3085	0.989161
1.309	0.99241
1.3095	0.981713
1.31	0.976224
1.3105	0.979697
1.311	0.989218
1.3115	0.995644
1.312	0.99042
1.3125	0.984607
1.313	0.979016
1.3135	0.96615
1.314	0.969126
1.3145	0.980433
1.315	0.98212
1.3155	0.982751
1.316	0.988077
1.3165	0.985564
1.317	0.976959
1.3175	0.985644
1.318	0.984518
1.3185	0.973802
1.319	0.973824
1.3195	0.972008
1.32	0.957594
1.3205	0.963623
1.321	0.976193
1.3215	0.974101
1.322	0.979634
1.3225	0.975299
1.323	0.96421
1.3235	0.968661
1.324	0.970699
1.3245	0.978798
1.325	0.983994
1.3255	0.976158
1.326	0.980592
1.3265	0.981241
1.327	0.972127
1.3275	0.970338
1.328	0.958043
1.3285	0.936753
1.329	0.93525
1.3295	0.955192
1.33	0.963036
1.3305	0.954839
1.331	0.930742
1.3315	0.913409
1.332	0.909632
1.3325	0.913658
1.333	0.943161
1.3335	0.938315
1.334	0.931624
1.3345	0.953207
1.335	0.959397
1.3355	0.946603
1.336	0.920607
1.3365	0.943419
1.337	0.93955
1.3375	0.917809
1.338	0.929784
1.3385	0.951817
1.339	0.950685
1.3395	0.948872
1.34	0.922504
1.3405	0.905078
1.341	0.932443
1.3415	0.935982
1.342	0.954674
1.3425	0.959257
1.343	0.952025
1.3435	0.924692
1.344	0.849965
1.3445	0.834398
1.345	0.888785
1.3455	0.898577
1.346	0.875932
1.3465	0.856508
1.347	0.861363
1.3475	0.766785
1.348	0.649669
1.3485	0.662731
1.349	0.760018
1.3495	0.819015
1.35	0.716565
1.3505	0.635966
1.351	0.696829
1.3515	0.677181
1.352	0.650218
1.3525	0.614407
1.353	0.541475
1.3535	0.539458
1.354	0.52421
1.3545	0.381835
1.355	0.347727
1.3555	0.414264
1.356	0.475103
1.3565	0.566694
1.357	0.46768
1.3575	0.376224
1.358	0.400889
1.3585	0.407344
1.359	0.398017
1.3595	0.323606
1.36	0.362759
1.3605	0.33863
1.361	0.205331
1.3615	0.133558
1.362	9.16E-02
1.3625	0.157666
1.363	0.381623
1.3635	0.514422
1.364	0.387654
1.3645	0.201515
1.365	0.165317
1.3655	0.276197
1.366	0.493921
1.3665	0.548541
1.367	0.415205
1.3675	0.256418
1.368	0.180227
1.3685	0.206699
1.369	0.342703
1.3695	0.415226
1.37	0.345499
1.3705	0.309097
1.371	0.255923
1.3715	0.321029
1.372	0.383497
1.3725	0.474427
1.373	0.528532
1.3735	0.552397
1.374	0.58942
1.3745	0.522261
1.375	0.534363
1.3755	0.61573
1.376	0.554924
1.3765	0.514548
1.377	0.490685
1.3775	0.649137
1.378	0.675547
1.3785	0.438971
1.379	0.43231
1.3795	0.598469
1.38	0.474817
1.3805	0.220329
1.381	0.229841
1.3815	0.392832
1.382	0.32833
1.3825	0.163956
1.383	0.162276
1.3835	0.276752
1.384	0.376504
1.3845	0.421488
1.385	0.325013
1.3855	0.343693
1.386	0.431697
1.3865	0.530876
1.387	0.638056
1.3875	0.519471
1.388	0.299851
1.3885	0.411768
1.389	0.659951
1.3895	0.695644
1.39	0.635987
1.3905	0.653188
1.391	0.666406
1.3915	0.630603
1.392	0.382256
1.3925	0.24657
1.393	0.46589
1.3935	0.634211
1.394	0.595382
1.3945	0.444659
1.395	0.25263
1.3955	0.191744
1.396	0.217931
1.3965	0.27108
1.397	0.460861
1.3975	0.670756
1.398	0.756632
1.3985	0.753307
1.399	0.660148
1.3995	0.432849
1.4	0.2862
1.4005	0.208796
1.401	0.225515
1.4015	0.332945
1.402	0.582223
1.4025	0.752791
1.403	0.710843
1.4035	0.665587
1.404	0.529172
1.4045	0.350373
1.405	0.296689
1.4055	0.500999
1.406	0.703004
1.4065	0.601432
1.407	0.360332
1.4075	0.416559
1.408	0.645177
1.4085	0.642945
1.409	0.432945
1.4095	0.332902
1.41	0.510959
1.4105	0.654516
1.411	0.676883
1.4115	0.69366
1.412	0.657413
1.4125	0.669471
1.413	0.788016
1.4135	0.687712
1.414	0.478139
1.4145	0.382805
1.415	0.466602
1.4155	0.638561
1.416	0.807518
1.4165	0.848588
1.417	0.790036
1.4175	0.72609
1.418	0.726432
1.4185	0.653151
1.419	0.463524
1.4195	0.47799
1.42	0.627036
1.4205	0.701574
1.421	0.743854
1.4215	0.799276
1.422	0.852626
1.4225	0.810109
1.423	0.686682
1.4235	0.594318
1.424	0.63052
1.4245	0.786177
1.425	0.796632
1.4255	0.708524
1.426	0.751181
1.4265	0.853826
1.427	0.815554
1.4275	0.72338
1.428	0.682849
1.4285	0.689598
1.429	0.75478
1.4295	0.817343
1.43	0.840521
1.4305	0.860757
1.431	0.718272
1.4315	0.568192
1.432	0.526365
1.4325	0.534518
1.433	0.683387
1.4335	0.790345
1.434	0.726555
1.4345	0.681708
1.435	0.761566
1.4355	0.793425
1.436	0.756652
1.4365	0.760759
1.437	0.728096
1.4375	0.595614
1.438	0.628659
1.4385	0.795217
1.439	0.800174
1.4395	0.720185
1.44	0.780522
1.4405	0.835891
1.441	0.798018
1.4415	0.745835
1.442	0.800516
1.4425	0.778416
1.443	0.744583
1.4435	0.850372
1.444	0.875749
1.4445	0.859526
1.445	0.784335
1.4455	0.571277
1.446	0.601755
1.4465	0.790117
1.447	0.8274
1.4475	0.870829
1.448	0.906848
1.4485	0.912217
1.449	0.927329
1.4495	0.885143
1.45	0.74458
1.4505	0.597585
1.451	0.631695
1.4515	0.794879
1.452	0.842665
1.4525	0.841939
1.453	0.872189
1.4535	0.93129
1.454	0.952788
1.4545	0.920363
1.455	0.836136
1.4555	0.810779
1.456	0.905511
1.4565	0.945529
1.457	0.929265
1.4575	0.899054
1.458	0.918295
1.4585	0.960599
1.459	0.970006
1.4595	0.950785
1.46	0.876355
1.4605	0.8433
1.461	0.877328
1.4615	0.898355
1.462	0.942741
1.4625	0.921796
1.463	0.827242
1.4635	0.843663
1.464	0.937228
1.4645	0.939385
1.465	0.828585
1.4655	0.795699
1.466	0.825654
1.4665	0.798202
1.467	0.800285
1.4675	0.841276
1.468	0.887595
1.4685	0.938082
1.469	0.899674
1.4695	0.803698
1.47	0.798999
1.4705	0.741123
1.471	0.71068
1.4715	0.811873
1.472	0.804961
1.4725	0.764204
1.473	0.830876
1.4735	0.85377
1.474	0.894997
1.4745	0.961406
1.475	0.965776
1.4755	0.898662
1.476	0.861363
1.4765	0.890331
1.477	0.864132
1.4775	0.83298
1.478	0.82643
1.4785	0.904473
1.479	0.920021
1.4795	0.877316
1.48	0.836371
1.4805	0.809763
1.481	0.872289
1.4815	0.859709
1.482	0.839475
1.4825	0.913516
1.483	0.957915
1.4835	0.963477
1.484	0.935494
1.4845	0.906341
1.485	0.929759
1.4855	0.939374
1.486	0.92403
1.4865	0.882261
1.487	0.886887
1.4875	0.912005
1.488	0.914617
1.4885	0.943914
1.489	0.962146
1.4895	0.941208
1.49	0.95377
1.4905	0.981149
1.491	0.957692
1.4915	0.92673
1.492	0.949918
1.4925	0.968496
1.493	0.974062
1.4935	0.981906
1.494	0.980063
1.4945	0.971889
1.495	0.959855
1.4955	0.956731
1.496	0.956166
1.4965	0.95587
1.497	0.975181
1.4975	0.981869
1.498	0.97257
1.4985	0.977995
1.499	0.983422
1.4995	0.983601
1.5	0.989545
1.5005	0.994823
1.501	0.995206
1.5015	0.990083
1.502	0.985349
1.5025	0.983511
1.503	0.978195
1.5035	0.967814
1.504	0.957971
1.5045	0.963865
1.505	0.977339
1.5055	0.990683
1.506	0.995848
1.5065	0.997733
1.507	0.995302
1.5075	0.993195
1.508	0.986639
1.5085	0.972209
1.509	0.97267
1.5095	0.988761
1.51	0.995338
1.5105	0.995196
1.511	0.9955
1.5115	0.996557
1.512	0.995543
1.5125	0.992274
1.513	0.991635
1.5135	0.990632
1.514	0.990138
1.5145	0.993126
1.515	0.99567
1.5155	0.997253
1.516	0.994723
1.5165	0.991892
1.517	0.992147
1.5175	0.99245
1.518	0.994448
1.5185	0.994836
1.519	0.993378
1.5195	0.994964
1.52	0.996898
1.5205	0.997452
1.521	0.99871
1.5215	0.99831
1.522	0.998006
1.5225	0.999226
1.523	0.999397
1.5235	0.998955
1.524	0.998585
1.5245	0.997473
1.525	0.997417
1.5255	0.997289
1.526	0.996982
1.5265	0.996727
1.527	0.996559
1.5275	0.997331
1.528	0.998479
1.5285	0.998448
1.529	0.998357
1.5295	0.998218
1.53	0.99795
1.5305	0.998147
1.531	0.997614
1.5315	0.997086
1.532	0.997569
1.5325	0.997316
1.533	0.996494
1.5335	0.995493
1.534	0.994491
1.5345	0.993728
1.535	0.99316
1.5355	0.993507
1.536	0.994487
1.5365	0.995652
1.537	0.996801
1.5375	0.998121
1.538	0.998551
1.5385	0.99758
1.539	0.996259
1.5395	0.995512
1.54	0.995323
1.5405	0.995286
1.541	0.99548
1.5415	0.995776
1.542	0.996154
1.5425	0.996847
1.543	0.997567
1.5435	0.998119
1.544	0.998291
1.5445	0.998574
1.545	0.999145
1.5455	0.999363
1.546	0.999447
1.5465	0.999619
1.547	0.999788
1.5475	0.999864
1.548	0.999897
1.5485	0.999958
1.549	0.999984
1.5495	0.999972
1.55	0.999972
1.5505	0.999957
1.551	0.999904
1.5515	0.999828
1.552	0.99971
1.5525	0.999824
1.553	0.999963
1.5535	0.999981
1.554	0.99993
1.5545	0.999915
1.555	0.999969
1.5555	0.999989
1.556	0.999955
1.5565	0.999932
1.557	0.999971
1.5575	0.999983
1.558	0.999942
1.5585	0.999902
1.559	0.999911
1.5595	0.999925
1.56	0.99993
1.5605	0.999937
1.561	0.999939
1.5615	0.999929
1.562	0.999786
1.5625	0.999744
1.563	0.999878
1.5635	0.999912
1.564	0.999832
1.5645	0.999806
1.565	0.999902
1.5655	0.999887
1.566	0.999795
1.5665	0.999681
1.567	0.99934
1.5675	0.998535
1.568	0.996927
1.5685	0.994105
1.569	0.989537
1.5695	0.983095
1.57	0.975186
1.5705	0.966736
1.571	0.95886
1.5715	0.952796
1.572	0.949256
1.5725	0.948615
1.573	0.950932
1.5735	0.956194
1.574	0.964546
1.5745	0.975479
1.575	0.986132
1.5755	0.988867
1.576	0.982112
1.5765	0.973833
1.577	0.968054
1.5775	0.965021
1.578	0.964245
1.5785	0.965091
1.579	0.967118
1.5795	0.969971
1.58	0.973272
1.5805	0.976787
1.581	0.98031
1.5815	0.983664
1.582	0.986741
1.5825	0.989415
1.583	0.991626
1.5835	0.993603
1.584	0.995294
1.5845	0.996533
1.585	0.997463
1.5855	0.998164
1.586	0.998589
1.5865	0.998892
1.587	0.999136
1.5875	0.999421
1.588	0.999697
1.5885	0.99982
1.589	0.999877
1.5895	0.999888
1.59	0.999833
1.5905	0.999832
1.591	0.999865
1.5915	0.999783
1.592	0.999736
1.5925	0.999757
1.593	0.999859
1.5935	0.999886
1.594	0.999745
1.5945	0.999651
1.595	0.999742
1.5955	0.999743
1.596	0.999559
1.5965	0.99933
1.597	0.998958
1.5975	0.998313
1.598	0.997068
1.5985	0.99455
1.599	0.990487
1.5995	0.984784
1.6	0.977769
1.6005	0.970044
1.601	0.962535
1.6015	0.956183
1.602	0.951591
1.6025	0.949488
1.603	0.95021
1.6035	0.953741
1.604	0.960162
1.6045	0.969399
1.605	0.980643
1.6055	0.989402
1.606	0.988523
1.6065	0.980525
1.607	0.972879
1.6075	0.967797
1.608	0.964969
1.6085	0.964036
1.609	0.964656
1.6095	0.966268
1.61	0.968646
1.6105	0.971693
1.611	0.975152
1.6115	0.978661
1.612	0.982072
1.6125	0.985257
1.613	0.988145
1.6135	0.99075
1.614	0.992936
1.6145	0.994439
1.615	0.995455
1.6155	0.996226
1.616	0.996776
1.6165	0.997114
1.617	0.9975
1.6175	0.997953
1.618	0.998236
1.6185	0.998384
1.619	0.998597
1.6195	0.999002
1.62	0.999217
1.6205	0.9992
1.621	0.999175
1.6215	0.999229
1.622	0.99935
1.6225	0.999426
1.623	0.999418
1.6235	0.99915
1.624	0.999012
1.6245	0.999406
1.625	0.999521
1.6255	0.999106
1.626	0.99881
1.6265	0.998994
1.627	0.998815
1.6275	0.998571
1.628	0.998318
1.6285	0.998209
1.629	0.998682
1.6295	0.998966
1.63	0.998138
1.6305	0.996643
1.631	0.997438
1.6315	0.998542
1.632	0.998446
1.6325	0.997076
1.633	0.995859
1.6335	0.996929
1.634	0.998132
1.6345	0.998072
1.635	0.995601
1.6355	0.993611
1.636	0.996307
1.6365	0.997799
1.637	0.996206
1.6375	0.990811
1.638	0.991201
1.6385	0.996126
1.639	0.996688
1.6395	0.994293
1.64	0.98709
1.6405	0.984319
1.641	0.991107
1.6415	0.993795
1.642	0.992266
1.6425	0.984194
1.643	0.978605
1.6435	0.987746
1.644	0.994105
1.6445	0.994977
1.645	0.98803
1.6455	0.97729
1.646	0.986136
1.6465	0.995735
1.647	0.996226
1.6475	0.991889
1.648	0.981497
1.6485	0.981172
1.649	0.989845
1.6495	0.992964
1.65	0.992775
1.6505	0.984552
1.651	0.977122
1.6515	0.987467
1.652	0.995546
1.6525	0.997355
1.653	0.994484
1.6535	0.984913
1.654	0.986222
1.6545	0.995556
1.655	0.997353
1.6555	0.996828
1.656	0.994626
1.6565	0.991325
1.657	0.994493
1.6575	0.998274
1.658	0.99922
1.6585	0.998876
1.659	0.997002
1.6595	0.995769
1.66	0.997911
1.6605	0.999433
1.661	0.999202
1.6615	0.998349
1.662	0.99629
1.6625	0.995592
1.663	0.997978
1.6635	0.998956
1.664	0.999184
1.6645	0.996956
1.665	0.979796
1.6655	0.948921
1.666	0.946502
1.6665	0.967316
1.667	0.983587
1.6675	0.992965
1.668	0.996505
1.6685	0.997298
1.669	0.99835
1.6695	0.998855
1.67	0.998905
1.6705	0.998365
1.671	0.997037
1.6715	0.996829
1.672	0.998676
1.6725	0.999481
1.673	0.999537
1.6735	0.998839
1.674	0.995088
1.6745	0.991961
1.675	0.996121
1.6755	0.998902
1.676	0.999502
1.6765	0.999238
1.677	0.995708
1.6775	0.989766
1.678	0.993045
1.6785	0.99834
1.679	0.9996
1.6795	0.999648
1.68	0.998383
1.6805	0.993789
1.681	0.992719
1.6815	0.99718
1.682	0.999177
1.6825	0.999572
1.683	0.99897
1.6835	0.993936
1.684	0.987307
1.6845	0.992763
1.685	0.998283
1.6855	0.999159
1.686	0.99934
1.6865	0.99815
1.687	0.993496
1.6875	0.99231
1.688	0.997138
1.6885	0.999014
1.689	0.998822
1.6895	0.998648
1.69	0.996655
1.6905	0.99186
1.691	0.992821
1.6915	0.996154
1.692	0.996962
1.6925	0.997661
1.693	0.99855
1.6935	0.996808
1.694	0.994088
1.6945	0.995536
1.695	0.997616
1.6955	0.999035
1.696	0.999051
1.6965	0.99633
1.697	0.991814
1.6975	0.99205
1.698	0.996588
1.6985	0.99843
1.699	0.998354
1.6995	0.996755
1.7	0.99558
1.7005	0.9949
1.701	0.994184
1.7015	0.996211
1.702	0.996618
1.7025	0.99466
1.703	0.993917
1.7035	0.994741
1.704	0.99592
1.7045	0.996299
1.705	0.994509
1.7055	0.992981
1.706	0.993419
1.7065	0.99245
1.707	0.992212
1.7075	0.99187
1.708	0.989504
1.7085	0.985788
1.709	0.988247
1.7095	0.994152
1.71	0.995552
1.7105	0.994632
1.711	0.996119
1.7115	0.997844
1.712	0.997649
1.7125	0.997388
1.713	0.997327
1.7135	0.994979
1.714	0.989792
1.7145	0.98908
1.715	0.994335
1.7155	0.995779
1.716	0.993698
1.7165	0.995132
1.717	0.997678
1.7175	0.998583
1.718	0.998935
1.7185	0.998756
1.719	0.998725
1.7195	0.998596
1.72	0.997533
1.7205	0.993958
1.721	0.984251
1.7215	0.981353
1.722	0.990301
1.7225	0.993332
1.723	0.990853
1.7235	0.985549
1.724	0.985271
1.7245	0.985362
1.725	0.989452
1.7255	0.993525
1.726	0.992479
1.7265	0.992953
1.727	0.994023
1.7275	0.994808
1.728	0.994141
1.7285	0.990264
1.729	0.990671
1.7295	0.995566
1.73	0.997163
1.7305	0.995473
1.731	0.994397
1.7315	0.987746
1.732	0.96995
1.7325	0.970811
1.733	0.990028
1.7335	0.997711
1.734	0.997953
1.7345	0.996948
1.735	0.994139
1.7355	0.9874
1.736	0.9825
1.7365	0.982531
1.737	0.987809
1.7375	0.995513
1.738	0.99684
1.7385	0.99702
1.739	0.996475
1.7395	0.990264
1.74	0.987425
1.7405	0.989218
1.741	0.974993
1.7415	0.969883
1.742	0.986994
1.7425	0.996856
1.743	0.998644
1.7435	0.997288
1.744	0.987291
1.7445	0.978692
1.745	0.989974
1.7455	0.996981
1.746	0.988282
1.7465	0.955319
1.747	0.93514
1.7475	0.961484
1.748	0.989824
1.7485	0.998195
1.749	0.99841
1.7495	0.998279
1.75	0.998326
1.7505	0.996394
1.751	0.982479
1.7515	0.963539
1.752	0.978604
1.7525	0.994877
1.753	0.997795
1.7535	0.998862
1.754	0.99788
1.7545	0.987828
1.755	0.965926
1.7555	0.97226
1.756	0.988893
1.7565	0.97725
1.757	0.958907
1.7575	0.96084
1.758	0.984148
1.7585	0.997334
1.759	0.999265
1.7595	0.999415
1.76	0.997791
1.7605	0.988583
1.761	0.97658
1.7615	0.985392
1.762	0.988172
1.7625	0.975266
1.763	0.971628
1.7635	0.985306
1.764	0.996017
1.7645	0.996305
1.765	0.97722
1.7655	0.899216
1.766	0.856711
1.7665	0.939257
1.767	0.989457
1.7675	0.995352
1.768	0.993635
1.7685	0.993025
1.769	0.990927
1.7695	0.983293
1.77	0.976578
1.7705	0.965019
1.771	0.970344
1.7715	0.99044
1.772	0.995049
1.7725	0.994248
1.773	0.992451
1.7735	0.975502
1.774	0.94632
1.7745	0.95322
1.775	0.976328
1.7755	0.970624
1.776	0.936639
1.7765	0.94199
1.777	0.978505
1.7775	0.987485
1.778	0.965441
1.7785	0.910506
1.779	0.90168
1.7795	0.960896
1.78	0.988168
1.7805	0.971153
1.781	0.907575
1.7815	0.900433
1.782	0.963232
1.7825	0.990178
1.783	0.99105
1.7835	0.980479
1.784	0.939547
1.7845	0.850293
1.785	0.835698
1.7855	0.904441
1.786	0.922935
1.7865	0.939159
1.787	0.924605
1.7875	0.943436
1.788	0.979564
1.7885	0.975012
1.789	0.970646
1.7895	0.984219
1.79	0.965082
1.7905	0.9157
1.791	0.900903
1.7915	0.923638
1.792	0.925982
1.7925	0.908541
1.793	0.888656
1.7935	0.838842
1.794	0.850045
1.7945	0.919654
1.795	0.915587
1.7955	0.903263
1.796	0.905209
1.7965	0.880078
1.797	0.864547
1.7975	0.907356
1.798	0.904895
1.7985	0.933347
1.799	0.957426
1.7995	0.865693
1.8	0.735663
1.8005	0.673912
1.801	0.641978
1.8015	0.679256
1.802	0.722686
1.8025	0.732231
1.803	0.795191
1.8035	0.81948
1.804	0.844085
1.8045	0.905595
1.805	0.91843
1.8055	0.798661
1.806	0.602828
1.8065	0.580763
1.807	0.709365
1.8075	0.73993
1.808	0.82988
1.8085	0.866173
1.809	0.828702
1.8095	0.863022
1.81	0.819937
1.8105	0.640963
1.811	0.559158
1.8115	0.663635
1.812	0.673269
1.8125	0.546687
1.813	0.534143
1.8135	0.716502
1.814	0.861074
1.8145	0.861675
1.815	0.685836
1.8155	0.503016
1.816	0.535325
1.8165	0.663968
1.817	0.72611
1.8175	0.807648
1.818	0.77621
1.8185	0.606512
1.819	0.666991
1.8195	0.708103
1.82	0.450024
1.8205	0.231995
1.821	0.344795
1.8215	0.42746
1.822	0.382297
1.8225	0.449666
1.823	0.664228
1.8235	0.872014
1.824	0.925567
1.8245	0.858705
1.825	0.762267
1.8255	0.682695
1.826	0.438123
1.8265	0.323723
1.827	0.562916
1.8275	0.694224
1.828	0.550015
1.8285	0.35861
1.829	0.354222
1.8295	0.488492
1.83	0.446233
1.8305	0.415176
1.831	0.362011
1.8315	0.415377
1.832	0.563215
1.8325	0.463533
1.833	0.462476
1.8335	0.631032
1.834	0.625292
1.8345	0.414787
1.835	0.230381
1.8355	0.220617
1.836	0.178502
1.8365	0.182371
1.837	0.264124
1.8375	0.172305
1.838	0.156958
1.8385	0.355053
1.839	0.494418
1.8395	0.337919
1.84	0.146859
1.8405	0.228261
1.841	0.340055
1.8415	0.19402
1.842	7.00E-02
1.8425	0.178866
1.843	0.422582
1.8435	0.500851
1.844	0.540374
1.8445	0.704041
1.845	0.791075
1.8455	0.711513
1.846	0.505973
1.8465	0.240522
1.847	7.88E-02
1.8475	6.64E-02
1.848	5.67E-02
1.8485	8.15E-02
1.849	0.231376
1.8495	0.420823
1.85	0.427886
1.8505	0.309397
1.851	0.405891
1.8515	0.658645
1.852	0.728646
1.8525	0.520265
1.853	0.244553
1.8535	0.140889
1.854	0.131862
1.8545	0.279166
1.855	0.486407
1.8555	0.603857
1.856	0.484497
1.8565	0.233545
1.857	0.164874
1.8575	0.314653
1.858	0.560157
1.8585	0.642119
1.859	0.492024
1.8595	0.224203
1.86	7.90E-02
1.8605	9.30E-02
1.861	0.273818
1.8615	0.586981
1.862	0.753575
1.8625	0.66951
1.863	0.567876
1.8635	0.587091
1.864	0.448971
1.8645	0.323844
1.865	0.440237
1.8655	0.64984
1.866	0.782219
1.8665	0.713465
1.867	0.45579
1.8675	0.163164
1.868	8.97E-02
1.8685	0.236509
1.869	0.313559
1.8695	0.206742
1.87	0.138519
1.8705	0.115419
1.871	5.72E-02
1.8715	8.57E-02
1.872	0.243747
1.8725	0.270482
1.873	0.110683
1.8735	4.58E-02
1.874	0.12984
1.8745	0.277352
1.875	0.281042
1.8755	0.240699
1.876	0.30503
1.8765	0.254479
1.877	0.151295
1.8775	0.276177
1.878	0.467319
1.8785	0.60112
1.879	0.708563
1.8795	0.700926
1.88	0.687054
1.8805	0.504241
1.881	0.366581
1.8815	0.451073
1.882	0.651267
1.8825	0.761348
1.883	0.718525
1.8835	0.525374
1.884	0.27008
1.8845	0.345893
1.885	0.570407
1.8855	0.60445
1.886	0.638684
1.8865	0.571515
1.887	0.506578
1.8875	0.71218
1.888	0.866443
1.8885	0.873187
1.889	0.792361
1.8895	0.552185
1.89	0.261012
1.8905	0.282815
1.891	0.518355
1.8915	0.537159
1.892	0.363721
1.8925	0.342407
1.893	0.431501
1.8935	0.402948
1.894	0.4259
1.8945	0.612475
1.895	0.74849
1.8955	0.813907
1.896	0.759868
1.8965	0.725
1.897	0.693178
1.8975	0.482464
1.898	0.350444
1.8985	0.351089
1.899	0.206489
1.8995	9.70E-02
1.9	9.60E-02
1.9005	0.15368
1.901	0.336999
1.9015	0.560217
1.902	0.600359
1.9025	0.380433
1.903	0.198569
1.9035	0.367057
1.904	0.563101
1.9045	0.458065
1.905	0.22723
1.9055	1.03E-01
1.906	0.134196
1.9065	0.151204
1.907	0.22922
1.9075	0.529702
1.908	0.735049
1.9085	0.680236
1.909	0.594674
1.9095	0.674531
1.91	0.639412
1.9105	0.485281
1.911	0.383999
1.9115	0.263919
1.912	0.327731
1.9125	0.458659
1.913	0.369726
1.9135	0.1752
1.914	0.174202
1.9145	0.320376
1.915	0.52134
1.9155	0.629217
1.916	0.437003
1.9165	0.294047
1.917	0.453112
1.9175	0.723905
1.918	0.878761
1.9185	0.876929
1.919	0.732677
1.9195	0.415555
1.92	0.17132
1.9205	0.112538
1.921	0.19256
1.9215	0.46125
1.922	0.727084
1.9225	0.852416
1.923	0.845974
1.9235	0.654076
1.924	0.339014
1.9245	0.375159
1.925	0.692257
1.9255	0.851692
1.926	0.800912
1.9265	0.646087
1.927	0.410942
1.9275	0.4422
1.928	0.56384
1.9285	0.471186
1.929	0.578064
1.9295	0.759497
1.93	0.652451
1.9305	0.496463
1.931	0.466443
1.9315	0.542726
1.932	0.667521
1.9325	0.760856
1.933	0.766824
1.9335	0.727837
1.934	0.599865
1.9345	0.690095
1.935	0.86242
1.9355	0.876094
1.936	0.769216
1.9365	0.638978
1.937	0.696656
1.9375	0.73631
1.938	0.661138
1.9385	0.669396
1.939	0.575382
1.9395	0.489812
1.94	0.619637
1.9405	0.759147
1.941	0.690495
1.9415	0.652101
1.942	0.787037
1.9425	0.9091
1.943	0.887102
1.9435	0.773461
1.944	0.717036
1.9445	0.67283
1.945	0.676608
1.9455	0.791275
1.946	0.83164
1.9465	0.833937
1.947	0.792152
1.9475	0.761861
1.948	0.748445
1.9485	0.745094
1.949	0.7747
1.9495	0.775876
1.95	0.785143
1.9505	0.776524
1.951	0.777698
1.9515	0.798763
1.952	0.767481
1.9525	0.711275
1.953	0.638537
1.9535	0.602585
1.954	0.610943
1.9545	0.600668
1.955	0.605607
1.9555	0.576528
1.956	0.567147
1.9565	0.5653
1.957	0.575832
1.9575	0.578493
1.958	0.579569
1.9585	0.598773
1.959	0.584712
1.9595	0.629493
1.96	0.746822
1.9605	0.790078
1.961	0.772737
1.9615	0.783614
1.962	0.761711
1.9625	0.706607
1.963	0.661145
1.9635	0.654439
1.964	0.672769
1.9645	0.689795
1.965	0.711013
1.9655	0.716115
1.966	0.725547
1.9665	0.748017
1.967	0.763272
1.9675	0.763655
1.968	0.763174
1.9685	0.785686
1.969	0.806164
1.9695	0.820381
1.97	0.837697
1.9705	0.841882
1.971	0.820472
1.9715	0.80163
1.972	0.819798
1.9725	0.863425
1.973	0.897542
1.9735	0.898302
1.974	0.873114
1.9745	0.889262
1.975	0.931456
1.9755	0.936444
1.976	0.937677
1.9765	0.95808
1.977	0.967937
1.9775	0.966568
1.978	0.970312
1.9785	0.974302
1.979	0.963889
1.9795	0.901237
1.98	0.849874
1.9805	0.891601
1.981	0.956644
1.9815	0.987015
1.982	0.991046
1.9825	0.983345
1.983	0.974059
1.9835	0.98466
1.984	0.993488
1.9845	0.988892
1.985	0.974006
1.9855	0.975018
1.986	0.983627
1.9865	0.949083
1.987	0.903697
1.9875	0.941843
1.988	0.983331
1.9885	0.992289
1.989	0.991018
1.9895	0.970443
1.99	0.928719
1.9905	0.927645
1.991	0.96527
1.9915	0.989
1.992	0.99274
1.9925	0.993353
1.993	0.99284
1.9935	0.982745
1.994	0.957892
1.9945	0.956733
1.995	0.967011
1.9955	0.952644
1.996	0.938006
1.9965	0.9145
1.997	0.882
1.9975	0.844148
1.998	0.78305
1.9985	0.741132
1.999	0.711359
1.9995	0.67178
2	0.634565
2.0005	0.593387
2.001	0.548113
2.0015	0.515316
2.002	0.488021
2.0025	0.454701
2.003	0.436616
2.0035	0.437718
2.004	0.436037
2.0045	0.430847
2.005	0.424401
2.0055	0.42297
2.006	0.440278
2.0065	0.481195
2.007	0.523335
2.0075	0.558791
2.008	0.604001
2.0085	0.676656
2.009	0.730873
2.0095	0.684896
2.01	0.606584
2.0105	0.560131
2.011	0.542376
2.0115	0.537556
2.012	0.532972
2.0125	0.53265
2.013	0.538825
2.0135	0.544618
2.014	0.55311
2.0145	0.566307
2.015	0.573614
2.0155	0.582422
2.016	0.593693
2.0165	0.600994
2.017	0.608891
2.0175	0.623827
2.018	0.637442
2.0185	0.657322
2.019	0.678052
2.0195	0.705016
2.02	0.72875
2.0205	0.744198
2.021	0.758573
2.0215	0.775118
2.022	0.797999
2.0225	0.820634
2.023	0.83668
2.0235	0.851677
2.024	0.863149
2.0245	0.879993
2.025	0.891937
2.0255	0.906314
2.026	0.918986
2.0265	0.928984
2.027	0.938921
2.0275	0.94175
2.028	0.942442
2.0285	0.945008
2.029	0.957841
2.0295	0.966836
2.03	0.971898
2.0305	0.971449
2.031	0.974023
2.0315	0.975874
2.032	0.976868
2.0325	0.975085
2.033	0.970927
2.0335	0.970497
2.034	0.974635
2.0345	0.97585
2.035	0.976149
2.0355	0.976091
2.036	0.975965
2.0365	0.975813
2.037	0.975666
2.0375	0.975223
2.038	0.973667
2.0385	0.972
2.039	0.970763
2.0395	0.965441
2.04	0.956422
2.0405	0.95391
2.041	0.956584
2.0415	0.957094
2.042	0.957092
2.0425	0.957579
2.043	0.958023
2.0435	0.958729
2.044	0.959736
2.0445	0.963234
2.045	0.967656
2.0455	0.969552
2.046	0.967006
2.0465	0.95781
2.047	0.943888
2.0475	0.927231
2.048	0.908587
2.0485	0.890093
2.049	0.871557
2.0495	0.852119
2.05	0.83315
2.0505	0.817644
2.051	0.804271
2.0515	0.786559
2.052	0.770667
2.0525	0.759552
2.053	0.753828
2.0535	0.742592
2.054	0.729294
2.0545	0.723702
2.055	0.724841
2.0555	0.729265
2.056	0.728618
2.0565	0.728459
2.057	0.737953
2.0575	0.753776
2.058	0.773241
2.0585	0.795234
2.059	0.823943
2.0595	0.86515
2.06	0.909775
2.0605	0.920489
2.061	0.881722
2.0615	0.844938
2.062	0.821068
2.0625	0.802408
2.063	0.790665
2.0635	0.785325
2.064	0.782425
2.0645	0.780954
2.065	0.781979
2.0655	0.784219
2.066	0.786287
2.0665	0.792697
2.067	0.801238
2.0675	0.808528
2.068	0.815835
2.0685	0.824412
2.069	0.832128
2.0695	0.839227
2.07	0.84826
2.0705	0.855963
2.071	0.863676
2.0715	0.87336
2.072	0.881719
2.0725	0.892018
2.073	0.897847
2.0735	0.901202
2.074	0.908826
2.0745	0.915163
2.075	0.920585
2.0755	0.928543
2.076	0.935447
2.0765	0.942482
2.077	0.94753
2.0775	0.949535
2.078	0.956246
2.0785	0.967069
2.079	0.976088
2.0795	0.980619
2.08	0.981121
2.0805	0.981952
2.081	0.980206
2.0815	0.976418
2.082	0.972997
2.0825	0.970551
2.083	0.968807
2.0835	0.968248
2.084	0.967118
2.0845	0.963965
2.085	0.963685
2.0855	0.968611
2.086	0.97195
2.0865	0.974571
2.087	0.977084
2.0875	0.978495
2.088	0.979102
2.0885	0.979474
2.089	0.98021
2.0895	0.980202
2.09	0.979773
2.0905	0.981942
2.091	0.984051
2.0915	0.985199
2.092	0.985978
2.0925	0.986366
2.093	0.986857
2.0935	0.984532
2.094	0.98361
2.0945	0.988349
2.095	0.991179
2.0955	0.992166
2.096	0.992772
2.0965	0.993108
2.097	0.993052
2.0975	0.993148
2.098	0.991457
2.0985	0.985616
2.099	0.985504
2.0995	0.991218
2.1	0.991952
2.1005	0.991351
2.101	0.990759
2.1015	0.985174
2.102	0.985828
2.1025	0.992668
2.103	0.995021
2.1035	0.99525
2.104	0.995401
2.1045	0.995188
2.105	0.994706
2.1055	0.99499
2.106	0.995206
2.1065	0.99451
2.107	0.993856
2.1075	0.993283
2.108	0.992674
2.1085	0.992229
2.109	0.991706
2.1095	0.990385
2.11	0.989928
2.1105	0.991479
2.111	0.991915
2.1115	0.989856
2.112	0.989246
2.1125	0.992217
2.113	0.994832
2.1135	0.996238
2.114	0.996626
2.1145	0.996422
2.115	0.995885
2.1155	0.995385
2.116	0.994928
2.1165	0.995097
2.117	0.995596
2.1175	0.995233
2.118	0.991779
2.1185	0.986503
2.119	0.98973
2.1195	0.993181
2.12	0.993028
2.1205	0.994346
2.121	0.995949
2.1215	0.996577
2.122	0.997153
2.1225	0.997531
2.123	0.99774
2.1235	0.997486
2.124	0.994993
2.1245	0.992031
2.125	0.994635
2.1255	0.997806
2.126	0.998591
2.1265	0.998546
2.127	0.996543
2.1275	0.990195
2.128	0.989867
2.1285	0.996507
2.129	0.998981
2.1295	0.999295
2.13	0.999362
2.1305	0.999394
2.131	0.999479
2.1315	0.999553
2.132	0.999575
2.1325	0.999597
2.133	0.999647
2.1335	0.999705
2.134	0.999752
2.1345	0.999775
2.135	0.999499
2.1355	0.998129
2.136	0.997355
2.1365	0.998859
2.137	0.999746
2.1375	0.999844
2.138	0.999808
2.1385	0.999708
2.139	0.999626
2.1395	0.999604
2.14	0.999686
2.1405	0.999781
2.141	0.999797
2.1415	0.99978
2.142	0.999657
2.1425	0.999035
2.143	0.998408
2.1435	0.998877
2.144	0.999426
2.1445	0.999488
2.145	0.999544
2.1455	0.999491
2.146	0.999303
2.1465	0.999123
2.147	0.998542
2.1475	0.997909
2.148	0.997522
2.1485	0.996886
2.149	0.995889
2.1495	0.995456
2.15	0.995801
2.1505	0.99589
2.151	0.992428
2.1515	0.988785
2.152	0.990536
2.1525	0.992506
2.153	0.993153
2.1535	0.994539
2.154	0.995219
2.1545	0.994729
2.155	0.993839
2.1555	0.994703
2.156	0.997083
2.1565	0.997817
2.157	0.998025
2.1575	0.998033
2.158	0.997922
2.1585	0.996851
2.159	0.994528
2.1595	0.994907
2.16	0.995534
2.1605	0.992891
2.161	0.98795
2.1615	0.990608
2.162	0.995532
2.1625	0.994938
2.163	0.988149
2.1635	0.981562
2.164	0.990049
2.1645	0.996989
2.165	0.997648
2.1655	0.997178
2.166	0.996071
2.1665	0.991765
2.167	0.988885
2.1675	0.992949
2.168	0.99397
2.1685	0.989486
2.169	0.99132
2.1695	0.996891
2.17	0.997394
2.1705	0.997241
2.171	0.998676
2.1715	0.998886
2.172	0.994685
2.1725	0.985489
2.173	0.987511
2.1735	0.995343
2.174	0.995607
2.1745	0.993251
2.175	0.994956
2.1755	0.996791
2.176	0.994811
2.1765	0.994842
2.177	0.998288
2.1775	0.998014
2.178	0.990081
2.1785	0.982693
2.179	0.987734
2.1795	0.992456
2.18	0.996971
2.1805	0.999397
2.181	0.999831
2.1815	0.999897
2.182	0.999529
2.1825	0.996475
2.183	0.987087
2.1835	0.980989
2.184	0.983752
2.1845	0.98264
2.185	0.981914
2.1855	0.992292
2.186	0.998663
2.1865	0.998859
2.187	0.996753
2.1875	0.994824
2.188	0.993897
2.1885	0.995922
2.189	0.997247
2.1895	0.994722
2.19	0.994259
2.1905	0.994604
2.191	0.99732
2.1915	0.999532
2.192	0.999882
2.1925	0.999898
2.193	0.9999
2.1935	0.999728
2.194	0.997669
2.1945	0.990746
2.195	0.986649
2.1955	0.993284
2.196	0.99801
2.1965	0.997623
2.197	0.997559
2.1975	0.995414
2.198	0.985972
2.1985	0.979431
2.199	0.9767
2.1995	0.959376
2.2	0.935899
2.2005	0.937891
2.201	0.968263
2.2015	0.980054
2.202	0.974894
2.2025	0.974967
2.203	0.982387
2.2035	0.989949
2.204	0.990271
2.2045	0.981373
2.205	0.976739
2.2055	0.986584
2.206	0.994208
2.2065	0.996118
2.207	0.99618
2.2075	0.996795
2.208	0.998279
2.2085	0.999423
2.209	0.999609
2.2095	0.999511
2.21	0.998808
2.2105	0.997034
2.211	0.993829
2.2115	0.994798
2.212	0.998706
2.2125	0.999756
2.213	0.999804
2.2135	0.999576
2.214	0.998701
2.2145	0.99729
2.215	0.996617
2.2155	0.994427
2.216	0.984435
2.2165	0.977336
2.217	0.987329
2.2175	0.996597
2.218	0.997415
2.2185	0.997024
2.219	0.998069
2.2195	0.998829
2.22	0.997985
2.2205	0.994967
2.221	0.986287
2.2215	0.975776
2.222	0.982578
2.2225	0.993946
2.223	0.997256
2.2235	0.996679
2.224	0.995443
2.2245	0.994855
2.225	0.994303
2.2255	0.994425
2.226	0.99135
2.2265	0.982573
2.227	0.9788
2.2275	0.985569
2.228	0.992801
2.2285	0.995289
2.229	0.996214
2.2295	0.997047
2.23	0.997029
2.2305	0.994632
2.231	0.988428
2.2315	0.977721
2.232	0.973658
2.2325	0.976136
2.233	0.984854
2.2335	0.986029
2.234	0.988382
2.2345	0.992375
2.235	0.992467
2.2355	0.991059
2.236	0.986236
2.2365	0.98245
2.237	0.984146
2.2375	0.981015
2.238	0.981672
2.2385	0.990406
2.239	0.994804
2.2395	0.992198
2.24	0.986413
2.2405	0.983508
2.241	0.983225
2.2415	0.98196
2.242	0.988232
2.2425	0.990505
2.243	0.989228
2.2435	0.982991
2.244	0.974572
2.2445	0.982794
2.245	0.993222
2.2455	0.990083
2.246	0.978993
2.2465	0.971278
2.247	0.962377
2.2475	0.969925
2.248	0.989124
2.2485	0.994497
2.249	0.991408
2.2495	0.986467
2.25	0.982199
2.2505	0.979755
2.251	0.983531
2.2515	0.988831
2.252	0.986741
2.2525	0.983614
2.253	0.981394
2.2535	0.971795
2.254	0.963237
2.2545	0.972871
2.255	0.981257
2.2555	0.974231
2.256	0.968306
2.2565	0.96161
2.257	0.957984
2.2575	0.971785
2.258	0.978421
2.2585	0.979962
2.259	0.98651
2.2595	0.986311
2.26	0.978532
2.2605	0.968476
2.261	0.951705
2.2615	0.940804
2.262	0.940006
2.2625	0.95908
2.263	0.978656
2.2635	0.971814
2.264	0.965993
2.2645	0.958859
2.265	0.961145
2.2655	0.982977
2.266	0.993066
2.2665	0.992775
2.267	0.986998
2.2675	0.975598
2.268	0.953734
2.2685	0.929876
2.269	0.945735
2.2695	0.975295
2.27	0.971509
2.2705	0.964014
2.271	0.97928
2.2715	0.980165
2.272	0.965421
2.2725	0.956249
2.273	0.973147
2.2735	0.983388
2.274	0.986924
2.2745	0.97875
2.275	0.948857
2.2755	0.908134
2.276	0.915153
2.2765	0.945513
2.277	0.95563
2.2775	0.968726
2.278	0.98151
2.2785	0.98638
2.279	0.992082
2.2795	0.99441
2.28	0.983541
2.2805	0.953011
2.281	0.949728
2.2815	0.975285
2.282	0.978107
2.2825	0.942704
2.283	0.914723
2.2835	0.93599
2.284	0.941467
2.2845	0.962253
2.285	0.962871
2.2855	0.958858
2.286	0.980057
2.2865	0.98546
2.287	0.984258
2.2875	0.983441
2.288	0.983258
2.2885	0.985013
2.289	0.967995
2.2895	0.926728
2.29	0.915811
2.2905	0.952905
2.291	0.976078
2.2915	0.97869
2.292	0.967073
2.2925	0.957611
2.293	0.972759
2.2935	0.971491
2.294	0.964631
2.2945	0.960616
2.295	0.945093
2.2955	0.938808
2.296	0.942288
2.2965	0.963931
2.297	0.982945
2.2975	0.98339
2.298	0.953511
2.2985	0.925243
2.299	0.933364
2.2995	0.943016
2.3	0.934129
2.3005	0.92733
2.301	0.948446
2.3015	0.971737
2.302	0.970491
2.3025	0.96394
2.303	0.959931
2.3035	0.940991
2.304	0.928285
2.3045	0.931518
2.305	0.948568
2.3055	0.958469
2.306	0.962497
2.3065	0.962509
2.307	0.954563
2.3075	0.937639
2.308	0.9569
2.3085	0.977544
2.309	0.976671
2.3095	0.976454
2.31	0.983692
2.3105	0.993099
2.311	0.997513
2.3115	0.993724
2.312	0.984136
2.3125	0.987303
2.313	0.996709
2.3135	0.999023
2.314	0.999099
2.3145	0.998696
2.315	0.996013
2.3155	0.979699
2.316	0.935832
2.3165	0.867631
2.317	0.811303
2.3175	0.827948
2.318	0.864725
2.3185	0.898328
2.319	0.931182
2.3195	0.944068
2.32	0.951705
2.3205	0.958068
2.321	0.962094
2.3215	0.963085
2.322	0.957657
2.3225	0.959501
2.323	0.965511
2.3235	0.972245
2.324	0.977937
2.3245	0.985046
2.325	0.97391
2.3255	0.960135
2.326	0.969202
2.3265	0.975944
2.327	0.986537
2.3275	0.990673
2.328	0.971451
2.3285	0.940097
2.329	0.950172
2.3295	0.973158
2.33	0.986412
2.3305	0.982867
2.331	0.970243
2.3315	0.955641
2.332	0.951438
2.3325	0.965414
2.333	0.977985
2.3335	0.976409
2.334	0.964535
2.3345	0.96055
2.335	0.960602
2.3355	0.966195
2.336	0.96134
2.3365	0.969484
2.337	0.980841
2.3375	0.977084
2.338	0.956486
2.3385	0.941888
2.339	0.949511
2.3395	0.934
2.34	0.897358
2.3405	0.905387
2.341	0.926808
2.3415	0.94015
2.342	0.956647
2.3425	0.964218
2.343	0.960445
2.3435	0.951694
2.344	0.958552
2.3445	0.954305
2.345	0.94008
2.3455	0.943382
2.346	0.948916
2.3465	0.937979
2.347	0.933339
2.3475	0.924386
2.348	0.905318
2.3485	0.920242
2.349	0.942168
2.3495	0.941384
2.35	0.925928
2.3505	0.893368
2.351	0.897072
2.3515	0.924596
2.352	0.919515
2.3525	0.915928
2.353	0.922111
2.3535	0.917725
2.354	0.949887
2.3545	0.963494
2.355	0.95395
2.3555	0.91556
2.356	0.879046
2.3565	0.927982
2.357	0.963778
2.3575	0.964065
2.358	0.933499
2.3585	0.870036
2.359	0.88495
2.3595	0.963767
2.36	0.992052
2.3605	0.991641
2.361	0.975223
2.3615	0.940303
2.362	0.952248
2.3625	0.984435
2.363	0.988768
2.3635	0.97297
2.364	0.950161
2.3645	0.952496
2.365	0.974649
2.3655	0.983467
2.366	0.969179
2.3665	0.962788
2.367	0.943157
2.3675	0.907294
2.368	0.932287
2.3685	0.954971
2.369	0.95129
2.3695	0.938787
2.37	0.842682
2.3705	0.728272
2.371	0.729634
2.3715	0.774662
2.372	0.837411
2.3725	0.882699
2.373	0.918496
2.3735	0.944687
2.374	0.960155
2.3745	0.964034
2.375	0.959103
2.3755	0.965488
2.376	0.952104
2.3765	0.907471
2.377	0.904044
2.3775	0.931
2.378	0.907885
2.3785	0.921102
2.379	0.9679
2.3795	0.96324
2.38	0.933895
2.3805	0.934061
2.381	0.966934
2.3815	0.987162
2.382	0.987888
2.3825	0.962841
2.383	0.901781
2.3835	0.862725
2.384	0.866113
2.3845	0.91903
2.385	0.966648
2.3855	0.952732
2.386	0.905631
2.3865	0.909875
2.387	0.940704
2.3875	0.933965
2.388	0.908492
2.3885	0.938128
2.389	0.977363
2.3895	0.964332
2.39	0.944988
2.3905	0.948655
2.391	0.901705
2.3915	0.85492
2.392	0.924237
2.3925	0.974617
2.393	0.968969
2.3935	0.964934
2.394	0.962912
2.3945	0.954722
2.395	0.958494
2.3955	0.961754
2.396	0.949142
2.3965	0.893799
2.397	0.88651
2.3975	0.939483
2.398	0.966811
2.3985	0.973696
2.399	0.975464
2.3995	0.969798
2.4	0.951566
2.4005	0.941643
2.401	0.969561
2.4015	0.984368
2.402	0.979792
2.4025	0.980651
2.403	0.978078
2.4035	0.952868
2.404	0.88516
2.4045	0.883144
2.405	0.951603
2.4055	0.965548
2.406	0.958672
2.4065	0.933967
2.407	0.89321
2.4075	0.902767
2.408	0.940661
2.4085	0.974308
2.409	0.969831
2.4095	0.922638
2.41	0.900453
2.4105	0.953353
2.411	0.97864
2.4115	0.957044
2.412	0.950973
2.4125	0.974749
2.413	0.983916
2.4135	0.960314
2.414	0.905766
2.4145	0.899527
2.415	0.939785
2.4155	0.869481
2.416	0.757664
2.4165	0.836881
2.417	0.951143
2.4175	0.969896
2.418	0.915165
2.4185	0.789856
2.419	0.721495
2.4195	0.793439
2.42	0.924383
2.4205	0.978743
2.421	0.986509
2.4215	0.980538
2.422	0.968026
2.4225	0.973043
2.423	0.979232
2.4235	0.954545
2.424	0.906933
2.4245	0.92579
2.425	0.958805
2.4255	0.960212
2.426	0.921156
2.4265	0.899833
2.427	0.951825
2.4275	0.976878
2.428	0.983258
2.4285	0.98898
2.429	0.988243
2.4295	0.985688
2.43	0.985017
2.4305	0.988574
2.431	0.990056
2.4315	0.990062
2.432	0.988691
2.4325	0.970047
2.433	0.913135
2.4335	0.893327
2.434	0.939491
2.4345	0.902277
2.435	0.73197
2.4355	0.59757
2.436	0.631729
2.4365	0.728593
2.437	0.884695
2.4375	0.965679
2.438	0.982708
2.4385	0.987867
2.439	0.990609
2.4395	0.991437
2.44	0.990118
2.4405	0.989325
2.441	0.990654
2.4415	0.991168
2.442	0.986601
2.4425	0.965025
2.443	0.948565
2.4435	0.968751
2.444	0.983381
2.4445	0.982747
2.445	0.962961
2.4455	0.854741
2.446	0.695745
2.4465	0.750931
2.447	0.807601
2.4475	0.809453
2.448	0.862584
2.4485	0.93036
2.449	0.969895
2.4495	0.930921
2.45	0.808578
2.4505	0.75729
2.451	0.709392
2.4515	0.708364
2.452	0.872539
2.4525	0.96329
2.453	0.968612
2.4535	0.924015
2.454	0.86702
2.4545	0.800507
2.455	0.845551
2.4555	0.95333
2.456	0.98238
2.4565	0.981337
2.457	0.984135
2.4575	0.988257
2.458	0.989456
2.4585	0.988928
2.459	0.985355
2.4595	0.983461
2.46	0.98769
2.4605	0.989319
2.461	0.985087
2.4615	0.972182
2.462	0.897028
2.4625	0.704691
2.463	0.695334
2.4635	0.881803
2.464	0.936822
2.4645	0.930875
2.465	0.965127
2.4655	0.984367
2.466	0.983507
2.4665	0.982927
2.467	0.966472
2.4675	0.900155
2.468	0.882605
2.4685	0.944515
2.469	0.973095
2.4695	0.979857
2.47	0.977851
2.4705	0.97075
2.471	0.945219
2.4715	0.822694
2.472	0.54844
2.4725	0.417373
2.473	0.566601
2.4735	0.816645
2.474	0.947652
2.4745	0.97037
2.475	0.960517
2.4755	0.95566
2.476	0.969926
2.4765	0.979271
2.477	0.966377
2.4775	0.950084
2.478	0.950259
2.4785	0.936691
2.479	0.934697
2.4795	0.909115
2.48	0.82928
2.4805	0.74317
2.481	0.732372
2.4815	0.720435
2.482	0.832854
2.4825	0.929904
2.483	0.924282
2.4835	0.811415
2.484	0.576806
2.4845	0.575719
2.485	0.818322
2.4855	0.934433
2.486	0.934841
2.4865	0.866461
2.487	0.772992
2.4875	0.629493
2.488	0.5019
2.4885	0.627788
2.489	0.805065
2.4895	0.870509
2.49	0.89751
2.4905	0.894663
2.491	0.894738
2.4915	0.819476
2.492	0.680487
2.4925	0.741875
2.493	0.84334
2.4935	0.851565
2.494	0.725824
2.4945	0.460913
2.495	0.433255
2.4955	0.671139
2.496	0.853566
2.4965	0.871603
2.497	0.898716
2.4975	0.918273
2.498	0.902228
2.4985	0.912999
2.499	0.907112
2.4995	0.903037
2.5	0.932785
2.5005	0.94399
2.501	0.944148
2.5015	0.933175
2.502	0.897503
2.5025	0.764674
2.503	0.554147
2.5035	0.641076
2.504	0.810104
2.5045	0.788688
2.505	0.774895
2.5055	0.652754
2.506	0.540022
2.5065	0.688029
2.507	0.873966
2.5075	0.95369
2.508	0.946673
2.5085	0.870182
2.509	0.790645
2.5095	0.798351
2.51	0.819311
2.5105	0.618924
2.511	0.436033
2.5115	0.59072
2.512	0.725538
2.5125	0.713271
2.513	0.740819
2.5135	0.836893
2.514	0.876216
2.5145	0.72178
2.515	0.532766
2.5155	0.458586
2.516	0.378223
2.5165	0.342304
2.517	0.320169
2.5175	0.363593
2.518	0.635447
2.5185	0.7907
2.519	0.694635
2.5195	0.589455
2.52	0.699825
2.5205	0.789973
2.521	0.878789
2.5215	0.88723
2.522	0.775135
2.5225	0.711074
2.523	0.752831
2.5235	0.661956
2.524	0.436938
2.5245	0.514212
2.525	0.636493
2.5255	0.602788
2.526	0.583203
2.5265	0.522015
2.527	0.47983
2.5275	0.536196
2.528	0.621574
2.5285	0.639913
2.529	0.581534
2.5295	0.342331
2.53	0.310989
2.5305	0.451109
2.531	0.339592
2.5315	0.146875
2.532	0.215495
2.5325	0.298721
2.533	0.245592
2.5335	0.379365
2.534	0.654209
2.5345	0.701519
2.535	0.492157
2.5355	0.290503
2.536	0.16057
2.5365	0.159142
2.537	0.375713
2.5375	0.543589
2.538	0.600312
2.5385	0.522481
2.539	0.416582
2.5395	0.557239
2.54	0.754694
2.5405	0.712958
2.541	0.4935
2.5415	0.335839
2.542	0.297892
2.5425	0.244042
2.543	0.127398
2.5435	0.135431
2.544	0.118953
2.5445	6.36E-02
2.545	8.69E-02
2.5455	0.219721
2.546	0.40749
2.5465	0.484662
2.547	0.319839
2.5475	1.01E-01
2.548	2.01E-02
2.5485	5.23E-02
2.549	0.221123
2.5495	0.434429
2.55	0.4232
2.5505	0.223386
2.551	0.113594
2.5515	0.21862
2.552	0.283961
2.5525	0.151188
2.553	5.50E-02
2.5535	0.165895
2.554	0.425521
2.5545	0.550142
2.555	0.544171
2.5555	0.599533
2.556	0.680659
2.5565	0.718477
2.557	0.656082
2.5575	0.587838
2.558	0.572521
2.5585	0.534059
2.559	0.423856
2.5595	0.227217
2.56	6.25E-02
2.5605	6.95E-03
2.561	3.93E-04
2.5615	8.19E-04
2.562	2.27E-03
2.5625	2.24E-03
2.563	5.11E-03
2.5635	1.30E-02
2.564	1.05E-02
2.5645	2.91E-03
2.565	8.25E-03
2.5655	6.10E-02
2.566	0.185608
2.5665	0.313503
2.567	0.342724
2.5675	0.22957
2.568	9.61E-02
2.5685	4.08E-02
2.569	1.32E-02
2.5695	1.93E-03
2.57	5.76E-03
2.5705	3.71E-02
2.571	0.113686
2.5715	0.176419
2.572	0.151331
2.5725	7.59E-02
2.573	1.90E-02
2.5735	3.26E-03
2.574	8.11E-03
2.5745	1.53E-02
2.575	2.01E-02
2.5755	4.21E-02
2.576	4.26E-02
2.5765	1.45E-02
2.577	3.84E-03
2.5775	2.32E-02
2.578	9.56E-02
2.5785	0.18468
2.579	0.210853
2.5795	0.161169
2.58	9.19E-02
2.5805	3.68E-02
2.581	7.09E-03
2.5815	6.95E-03
2.582	2.18E-02
2.5825	2.45E-02
2.583	9.31E-03
2.5835	1.15E-03
2.584	9.91E-05
2.5845	1.27E-03
2.585	9.84E-03
2.5855	2.74E-02
2.586	2.93E-02
2.5865	1.19E-02
2.587	1.75E-03
2.5875	1.33E-04
2.588	2.87E-04
2.5885	8.31E-04
2.589	1.21E-03
2.5895	6.18E-03
2.59	3.23E-02
2.5905	6.68E-02
2.591	6.38E-02
2.5915	4.65E-02
2.592	2.41E-02
2.5925	5.21E-03
2.593	5.00E-04
2.5935	9.94E-05
2.594	1.98E-05
2.5945	1.18E-06
2.595	1.89E-08
2.5955	4.82E-07
2.596	1.81E-05
2.5965	1.94E-04
2.597	7.23E-04
2.5975	3.60E-03
2.598	2.46E-02
2.5985	8.04E-02
2.599	0.127581
2.5995	0.112316
2.6	8.43E-02
2.6005	5.99E-02
2.601	1.96E-02
2.6015	2.72E-03
2.602	3.60E-03
2.6025	7.14E-03
2.603	4.51E-03
2.6035	8.84E-04
2.604	5.25E-05
2.6045	8.60E-07
2.605	5.04E-09
2.6055	2.97E-07
2.606	4.55E-06
2.6065	1.84E-05
2.607	2.60E-05
2.6075	1.90E-04
2.608	1.65E-03
2.6085	4.80E-03
2.609	4.58E-03
2.6095	1.56E-03
2.61	2.39E-03
2.6105	1.46E-02
2.611	4.18E-02
2.6115	5.24E-02
2.612	2.66E-02
2.6125	5.19E-03
2.613	7.35E-04
2.6135	1.95E-03
2.614	8.06E-03
2.6145	1.20E-02
2.615	6.24E-03
2.6155	1.82E-03
2.616	3.29E-04
2.6165	2.39E-05
2.617	1.46E-06
2.6175	1.48E-05
2.618	8.83E-05
2.6185	2.09E-04
2.619	3.50E-04
2.6195	2.86E-04
2.62	7.22E-05
2.6205	3.42E-05
2.621	6.69E-04
2.6215	6.31E-03
2.622	2.70E-02
2.6225	6.30E-02
2.623	0.108362
2.6235	0.145428
2.624	0.139613
2.6245	9.83E-02
2.625	5.61E-02
2.6255	2.26E-02
2.626	4.67E-03
2.6265	4.00E-04
2.627	2.13E-04
2.6275	1.74E-03
2.628	5.60E-03
2.6285	7.16E-03
2.629	3.64E-03
2.6295	6.87E-04
2.63	4.45E-05
2.6305	1.71E-06
2.631	2.38E-05
2.6315	2.59E-04
2.632	1.43E-03
2.6325	3.29E-03
2.633	2.41E-03
2.6335	6.17E-04
2.634	1.82E-03
2.6345	1.95E-02
2.635	8.34E-02
2.6355	0.169934
2.636	0.237048
2.6365	0.285807
2.637	0.376957
2.6375	0.480683
2.638	0.491994
2.6385	0.378246
2.639	0.303121
2.6395	0.389943
2.64	0.37034
2.6405	0.209802
2.641	1.03E-01
2.6415	4.42E-02
2.642	1.73E-02
2.6425	6.32E-02
2.643	0.19311
2.6435	0.261071
2.644	0.187096
2.6445	0.124988
2.645	7.17E-02
2.6455	1.81E-02
2.646	3.63E-03
2.6465	1.46E-02
2.647	7.58E-02
2.6475	0.215419
2.648	0.365365
2.6485	0.454782
2.649	0.460136
2.6495	0.384377
2.65	0.342028
2.6505	0.300265
2.651	0.167152
2.6515	4.85E-02
2.652	8.23E-03
2.6525	1.19E-03
2.653	3.62E-03
2.6535	2.10E-02
2.654	4.97E-02
2.6545	4.80E-02
2.655	1.79E-02
2.6555	4.14E-03
2.656	1.30E-02
2.6565	3.75E-02
2.657	6.15E-02
2.6575	6.73E-02
2.658	5.49E-02
2.6585	4.88E-02
2.659	2.21E-02
2.6595	3.65E-03
2.66	4.84E-04
2.6605	1.50E-03
2.661	3.22E-03
2.6615	2.57E-03
2.662	8.46E-04
2.6625	9.85E-04
2.663	1.89E-03
2.6635	1.42E-03
2.664	3.92E-04
2.6645	4.02E-05
2.665	1.34E-06
2.6655	7.00E-09
2.666	0
2.6665	0
2.667	0
2.6675	0
2.668	0
2.6685	0
2.669	0
2.6695	0
2.67	0
2.6705	3.24E-11
2.671	2.51E-08
2.6715	6.68E-07
2.672	4.48E-06
2.6725	7.65E-06
2.673	5.97E-06
2.6735	1.93E-05
2.674	3.29E-05
2.6745	1.44E-05
2.675	1.58E-06
2.6755	4.40E-08
2.676	0
2.6765	0
2.677	0
2.6775	0
2.678	0
2.6785	0
2.679	0
2.6795	0
2.68	0
2.6805	0
2.681	0
2.6815	0
2.682	0
2.6825	0
2.683	0
2.6835	0
2.684	0
2.6845	0
2.685	0
2.6855	0
2.686	0
2.6865	0
2.687	0
2.6875	0
2.688	8.12E-09
2.6885	3.75E-07
2.689	4.39E-06
2.6895	1.48E-05
2.69	4.72E-05
2.6905	1.87E-04
2.691	2.41E-04
2.6915	1.35E-04
2.692	2.39E-04
2.6925	3.19E-04
2.693	1.37E-04
2.6935	1.71E-05
2.694	5.87E-07
2.6945	2.07E-09
2.695	0
2.6955	0
2.696	0
2.6965	0
2.697	0
2.6975	0
2.698	1.33E-08
2.6985	6.15E-07
2.699	7.31E-06
2.6995	2.24E-05
2.7	1.77E-05
2.7005	3.58E-06
2.701	1.98E-07
2.7015	2.04E-07
2.702	1.11E-06
2.7025	7.60E-06
2.703	6.14E-05
2.7035	1.49E-04
2.704	1.10E-04
2.7045	8.08E-05
2.705	8.40E-05
2.7055	8.15E-05
2.706	1.37E-04
2.7065	9.46E-05
2.707	2.47E-05
2.7075	1.02E-05
2.708	3.79E-06
2.7085	3.95E-07
2.709	1.04E-08
2.7095	0
2.71	0
2.7105	0
2.711	8.09E-09
2.7115	2.67E-06
2.712	9.36E-05
2.7125	9.77E-04
2.713	3.15E-03
2.7135	3.55E-03
2.714	4.84E-03
2.7145	1.24E-02
2.715	1.46E-02
2.7155	1.61E-02
2.716	2.29E-02
2.7165	1.41E-02
2.717	3.15E-03
2.7175	2.66E-04
2.718	1.40E-04
2.7185	4.31E-04
2.719	3.86E-04
2.7195	9.44E-05
2.72	6.42E-06
2.7205	1.48E-07
2.721	2.64E-06
2.7215	5.75E-05
2.722	3.67E-04
2.7225	7.00E-04
2.723	4.19E-04
2.7235	9.11E-05
2.724	8.87E-06
2.7245	3.64E-07
2.725	2.43E-06
2.7255	1.21E-04
2.726	2.10E-03
2.7265	1.45E-02
2.727	4.26E-02
2.7275	6.29E-02
2.728	8.06E-02
2.7285	0.135916
2.729	0.178259
2.7295	0.172816
2.73	0.1944
2.7305	0.201914
2.731	0.155793
2.7315	0.119003
2.732	7.23E-02
2.7325	7.22E-02
2.733	1.02E-01
2.7335	8.18E-02
2.734	3.35E-02
2.7345	6.23E-03
2.735	7.03E-04
2.7355	2.46E-03
2.736	1.34E-02
2.7365	3.18E-02
2.737	3.06E-02
2.7375	1.29E-02
2.738	2.75E-03
2.7385	3.52E-04
2.739	2.64E-05
2.7395	7.44E-07
2.74	1.48E-09
2.7405	0
2.741	1.07E-09
2.7415	1.63E-06
2.742	5.83E-05
2.7425	8.04E-04
2.743	6.51E-03
2.7435	2.32E-02
2.744	2.91E-02
2.7445	1.49E-02
2.745	4.82E-03
2.7455	2.54E-03
2.746	8.66E-03
2.7465	2.78E-02
2.747	3.22E-02
2.7475	1.57E-02
2.748	7.11E-03
2.7485	2.69E-03
2.749	2.50E-03
2.7495	3.92E-03
2.75	5.72E-03
2.7505	4.41E-03
2.751	1.26E-03
2.7515	2.81E-04
2.752	5.96E-05
2.7525	8.36E-05
2.753	1.22E-04
2.7535	4.67E-05
2.754	4.60E-06
2.7545	1.16E-07
2.755	0
2.7555	0
2.756	0
2.7565	0
2.757	0
2.7575	2.22E-08
2.758	6.52E-07
2.7585	4.83E-06
2.759	9.05E-06
2.7595	4.28E-06
2.76	6.84E-07
2.7605	1.52E-06
2.761	3.29E-06
2.7615	1.81E-06
2.762	2.48E-07
2.7625	8.59E-09
2.763	0
2.7635	1.51E-09
2.764	1.48E-07
2.7645	3.20E-06
2.765	1.75E-05
2.7655	2.43E-05
2.766	9.76E-06
2.7665	1.29E-05
2.767	2.92E-05
2.7675	1.84E-05
2.768	1.71E-05
2.7685	1.13E-04
2.769	5.71E-04
2.7695	1.22E-03
2.77	7.63E-04
2.7705	1.29E-04
2.771	5.72E-06
2.7715	6.45E-08
2.772	9.73E-07
2.7725	1.89E-05
2.773	1.04E-04
2.7735	1.73E-04
2.774	2.19E-04
2.7745	5.29E-04
2.775	5.07E-04
2.7755	1.49E-04
2.776	4.94E-05
2.7765	2.76E-05
2.777	4.83E-06
2.7775	1.89E-06
2.778	1.55E-05
2.7785	3.84E-05
2.779	4.29E-05
2.7795	1.49E-04
2.78	2.98E-04
2.7805	1.63E-04
2.781	2.47E-05
2.7815	3.13E-06
2.782	2.23E-05
2.7825	6.31E-05
2.783	1.21E-04
2.7835	8.94E-04
2.784	2.69E-03
2.7845	2.27E-03
2.785	9.21E-04
2.7855	1.45E-03
2.786	1.40E-03
2.7865	3.71E-04
2.787	3.26E-05
2.7875	5.92E-06
2.788	3.25E-05
2.7885	2.33E-04
2.789	2.17E-03
2.7895	9.73E-03
2.79	1.24E-02
2.7905	5.38E-03
2.791	1.02E-02
2.7915	2.93E-02
2.792	3.48E-02
2.7925	4.04E-02
2.793	4.22E-02
2.7935	2.46E-02
2.794	4.77E-02
2.7945	8.61E-02
2.795	5.78E-02
2.7955	2.42E-02
2.796	4.46E-02
2.7965	6.75E-02
2.797	3.27E-02
2.7975	8.45E-03
2.798	1.06E-02
2.7985	3.57E-02
2.799	1.03E-01
2.7995	0.156297
2.8	0.122158
2.8005	7.07E-02
2.801	6.60E-02
2.8015	4.71E-02
2.802	1.43E-02
2.8025	1.79E-03
2.803	6.43E-04
2.8035	3.94E-04
2.804	2.26E-04
2.8045	1.10E-03
2.805	2.63E-03
2.8055	3.62E-03
2.806	6.46E-03
2.8065	1.52E-02
2.807	3.08E-02
2.8075	6.74E-02
2.808	6.81E-02
2.8085	4.31E-02
2.809	6.56E-02
2.8095	0.13047
2.81	0.162818
2.8105	0.167043
2.811	0.135555
2.8115	0.143319
2.812	0.261345
2.8125	0.317976
2.813	0.248
2.8135	0.1626
2.814	0.110821
2.8145	9.00E-02
2.815	4.28E-02
2.8155	5.64E-02
2.816	0.114975
2.8165	0.146448
2.817	0.198823
2.8175	0.20472
2.818	0.131264
2.8185	9.56E-02
2.819	7.29E-02
2.8195	1.04E-01
2.82	0.138922
2.8205	6.34E-02
2.821	1.91E-02
2.8215	1.78E-02
2.822	3.86E-02
2.8225	0.121813
2.823	0.290264
2.8235	0.401859
2.824	0.431195
2.8245	0.366323
2.825	0.349735
2.8255	0.363209
2.826	0.466245
2.8265	0.495938
2.827	0.327594
2.8275	0.175315
2.828	0.234631
2.8285	0.459239
2.829	0.533351
2.8295	0.580749
2.83	0.621517
2.8305	0.603327
2.831	0.590532
2.8315	0.37147
2.832	0.173429
2.8325	0.186164
2.833	0.200769
2.8335	0.106089
2.834	4.79E-02
2.8345	3.34E-02
2.835	3.49E-02
2.8355	0.10756
2.836	0.227813
2.8365	0.276641
2.837	0.225446
2.8375	0.162838
2.838	0.119724
2.8385	6.35E-02
2.839	0.119752
2.8395	0.272107
2.84	0.404969
2.8405	0.502971
2.841	0.388931
2.8415	0.256477
2.842	0.293187
2.8425	0.412982
2.843	0.525199
2.8435	0.605072
2.844	0.657805
2.8445	0.722408
2.845	0.622172
2.8455	0.495645
2.846	0.439465
2.8465	0.377671
2.847	0.374548
2.8475	0.277272
2.848	0.241024
2.8485	0.281021
2.849	0.214091
2.8495	0.123175
2.85	0.244864
2.8505	0.473116
2.851	0.581658
2.8515	0.536428
2.852	0.39951
2.8525	0.307083
2.853	0.211426
2.8535	0.10984
2.854	8.39E-02
2.8545	5.36E-02
2.855	7.48E-02
2.8555	0.122775
2.856	0.212801
2.8565	0.387664
2.857	0.464035
2.8575	0.505301
2.858	0.581417
2.8585	0.611766
2.859	0.552674
2.8595	0.351697
2.86	0.259701
2.8605	0.347398
2.861	0.352763
2.8615	0.487042
2.862	0.645301
2.8625	0.658417
2.863	0.689595
2.8635	0.700898
2.864	0.619495
2.8645	0.553631
2.865	0.641914
2.8655	0.711172
2.866	0.612417
2.8665	0.372976
2.867	0.309984
2.8675	0.490264
2.868	0.516138
2.8685	0.477669
2.869	0.499442
2.8695	0.545288
2.87	0.589623
2.8705	0.604545
2.871	0.476757
2.8715	0.233761
2.872	0.201708
2.8725	0.275509
2.873	0.278552
2.8735	0.467878
2.874	0.670259
2.8745	0.792233
2.875	0.846049
2.8755	0.841095
2.876	0.823123
2.8765	0.785253
2.877	0.638074
2.8775	0.386688
2.878	0.417697
2.8785	0.587186
2.879	0.587135
2.8795	0.689394
2.88	0.776552
2.8805	0.761782
2.881	0.699618
2.8815	0.613598
2.882	0.698733
2.8825	0.747537
2.883	0.692952
2.8835	0.659921
2.884	0.534951
2.8845	0.472182
2.885	0.604857
2.8855	0.751509
2.886	0.788312
2.8865	0.773394
2.887	0.731054
2.8875	0.495654
2.888	0.289969
2.8885	0.304275
2.889	0.313812
2.8895	0.466028
2.89	0.664495
2.8905	0.800549
2.891	0.776432
2.8915	0.722514
2.892	0.714457
2.8925	0.747432
2.893	0.723046
2.8935	0.63461
2.894	0.72053
2.8945	0.868683
2.895	0.906604
2.8955	0.903254
2.896	0.902863
2.8965	0.913318
2.897	0.920155
2.8975	0.918971
2.898	0.90676
2.8985	0.881214
2.899	0.824213
2.8995	0.624249
2.9	0.396314
2.9005	0.232653
2.901	0.150659
2.9015	0.348385
2.902	0.590147
2.9025	0.639012
2.903	0.73369
2.9035	0.799822
2.904	0.635511
2.9045	0.336355
2.905	0.268345
2.9055	0.534204
2.906	0.716218
2.9065	0.684986
2.907	0.706638
2.9075	0.800368
2.908	0.792253
2.9085	0.748186
2.909	0.809645
2.9095	0.877776
2.91	0.886308
2.9105	0.908211
2.911	0.949865
2.9115	0.957303
2.912	0.923361
2.9125	0.829536
2.913	0.709975
2.9135	0.753751
2.914	0.69318
2.9145	0.512594
2.915	0.650562
2.9155	0.874028
2.916	0.93699
2.9165	0.871585
2.917	0.698105
2.9175	0.707149
2.918	0.872235
2.9185	0.943435
2.919	0.962117
2.9195	0.961514
2.92	0.925046
2.9205	0.853492
2.921	0.754992
2.9215	0.594009
2.922	0.381653
2.9225	0.326585
2.923	0.35475
2.9235	0.241187
2.924	0.265377
2.9245	0.477577
2.925	0.619293
2.9255	0.713627
2.926	0.868323
2.9265	0.933775
2.927	0.953994
2.9275	0.953612
2.928	0.954551
2.9285	0.96484
2.929	0.939855
2.9295	0.837795
2.93	0.771591
2.9305	0.872898
2.931	0.955508
2.9315	0.977986
2.932	0.979693
2.9325	0.962755
2.933	0.882117
2.9335	0.78631
2.934	0.865833
2.9345	0.951566
2.935	0.934062
2.9355	0.912246
2.936	0.952117
2.9365	0.968603
2.937	0.92222
2.9375	0.744192
2.938	0.574189
2.9385	0.690198
2.939	0.74291
2.9395	0.69745
2.94	0.770114
2.9405	0.85917
2.941	0.922123
2.9415	0.930904
2.942	0.888739
2.9425	0.842992
2.943	0.684235
2.9435	0.460159
2.944	0.568784
2.9445	0.790955
2.945	0.909967
2.9455	0.950008
2.946	0.93446
2.9465	0.819551
2.947	0.510199
2.9475	0.286637
2.948	0.484864
2.9485	0.759475
2.949	0.905885
2.9495	0.956225
2.95	0.959602
2.9505	0.966181
2.951	0.971639
2.9515	0.961686
2.952	0.948517
2.9525	0.913799
2.953	0.746139
2.9535	0.510973
2.954	0.527675
2.9545	0.549592
2.955	0.600493
2.9555	0.711448
2.956	0.753613
2.9565	0.886568
2.957	0.957153
2.9575	0.932438
2.958	0.854461
2.9585	0.860863
2.959	0.881802
2.9595	0.868083
2.96	0.885459
2.9605	0.876069
2.961	0.893392
2.9615	0.92871
2.962	0.928962
2.9625	0.894575
2.963	0.83041
2.9635	0.842835
2.964	0.932423
2.9645	0.97164
2.965	0.975616
2.9655	0.965213
2.966	0.911104
2.9665	0.864525
2.967	0.889403
2.9675	0.843083
2.968	0.717815
2.9685	0.681378
2.969	0.664272
2.9695	0.577953
2.97	0.631492
2.9705	0.544183
2.971	0.381754
2.9715	0.405728
2.972	0.424953
2.9725	0.483509
2.973	0.694422
2.9735	0.733599
2.974	0.606976
2.9745	0.506651
2.975	0.634592
2.9755	0.76117
2.976	0.666147
2.9765	0.62906
2.977	0.774074
2.9775	0.907479
2.978	0.892489
2.9785	0.725041
2.979	0.639564
2.9795	0.660313
2.98	0.599111
2.9805	0.707355
2.981	0.799222
2.9815	0.738946
2.982	0.719576
2.9825	0.848958
2.983	0.932287
2.9835	0.895088
2.984	0.841331
2.9845	0.897464
2.985	0.930157
2.9855	0.939362
2.986	0.942041
2.9865	0.920083
2.987	0.935972
2.9875	0.963433
2.988	0.948701
2.9885	0.907265
2.989	0.932865
2.9895	0.974346
2.99	0.984219
2.9905	0.9812
2.991	0.954897
2.9915	0.901111
2.992	0.866896
2.9925	0.889941
2.993	0.906349
2.9935	0.874493
2.994	0.857778
2.9945	0.884219
2.995	0.901321
2.9955	0.939934
2.996	0.889207
2.9965	0.661252
2.997	0.537483
2.9975	0.751364
2.998	0.87258
2.9985	0.755666
2.999	0.716363
2.9995	0.881025
3	0.967029
3.0005	0.974472
3.001	0.976493
3.0015	0.981752
3.002	0.981171
3.0025	0.960362
3.003	0.888355
3.0035	0.863145
3.004	0.924353
3.0045	0.902009
3.005	0.727278
3.0055	0.598393
3.006	0.582911
3.0065	0.660718
3.007	0.817101
3.0075	0.797236
3.008	0.748837
3.0085	0.796367
3.009	0.741774
3.0095	0.741309
3.01	0.889988
3.0105	0.964678
3.011	0.974066
3.0115	0.961975
3.012	0.967442
3.0125	0.961354
3.013	0.896876
3.0135	0.85731
3.014	0.861527
3.0145	0.844262
3.015	0.913018
3.0155	0.967069
3.016	0.966976
3.0165	0.951145
3.017	0.91227
3.0175	0.751481
3.018	0.49712
3.0185	0.524597
3.019	0.664609
3.0195	0.751448
3.02	0.828532
3.0205	0.767852
3.021	0.779238
3.0215	0.725738
3.022	0.42577
3.0225	0.316217
3.023	0.561545
3.0235	0.824382
3.024	0.944259
3.0245	0.97178
3.025	0.978486
3.0255	0.980518
3.026	0.974976
3.0265	0.940095
3.027	0.825099
3.0275	0.787415
3.028	0.908282
3.0285	0.973717
3.029	0.974097
3.0295	0.923543
3.03	0.860924
3.0305	0.902232
3.031	0.948173
3.0315	0.885119
3.032	0.689938
3.0325	0.525935
3.033	0.592696
3.0335	0.787056
3.034	0.914661
3.0345	0.949563
3.035	0.889255
3.0355	0.752812
3.036	0.71635
3.0365	0.579086
3.037	0.393265
3.0375	0.497841
3.038	0.570905
3.0385	0.652752
3.039	0.841702
3.0395	0.906248
3.04	0.801885
3.0405	0.555676
3.041	0.54232
3.0415	0.797774
3.042	0.943206
3.0425	0.960919
3.043	0.946075
3.0435	0.951112
3.044	0.939986
3.0445	0.86622
3.045	0.773398
3.0455	0.716456
3.046	0.67584
3.0465	0.81779
3.047	0.940445
3.0475	0.934172
3.048	0.808442
3.0485	0.609441
3.049	0.623277
3.0495	0.754698
3.05	0.824163
3.0505	0.892049
3.051	0.867151
3.0515	0.648114
3.052	0.378081
3.0525	0.477978
3.053	0.708233
3.0535	0.749783
3.054	0.582209
3.0545	0.311391
3.055	0.390934
3.0555	0.677221
3.056	0.74562
3.0565	0.734765
3.057	0.758117
3.0575	0.759125
3.058	0.843892
3.0585	0.943346
3.059	0.976151
3.0595	0.981693
3.06	0.977872
3.0605	0.958673
3.061	0.898077
3.0615	0.817807
3.062	0.783536
3.0625	0.670423
3.063	0.705427
3.0635	0.853539
3.064	0.844046
3.0645	0.810487
3.065	0.885825
3.0655	0.943904
3.066	0.933048
3.0665	0.79211
3.067	0.608628
3.0675	0.715658
3.068	0.899147
3.0685	0.944377
3.069	0.893355
3.0695	0.74144
3.07	0.565733
3.0705	0.662121
3.071	0.819898
3.0715	0.87784
3.072	0.841491
3.0725	0.606771
3.073	0.423937
3.0735	0.625579
3.074	0.865953
3.0745	0.94766
3.075	0.959706
3.0755	0.956791
3.076	0.969641
3.0765	0.977664
3.077	0.966993
3.0775	0.957377
3.078	0.968635
3.0785	0.969956
3.079	0.938746
3.0795	0.906704
3.08	0.902507
3.0805	0.815068
3.081	0.532451
3.0815	0.246026
3.082	0.32448
3.0825	0.646974
3.083	0.845785
3.0835	0.880518
3.084	0.884082
3.0845	0.829565
3.085	0.829624
3.0855	0.847989
3.086	0.691225
3.0865	0.651474
3.087	0.844503
3.0875	0.942095
3.088	0.931373
3.0885	0.883139
3.089	0.740118
3.0895	0.525393
3.09	0.628216
3.0905	0.862318
3.091	0.936923
3.0915	0.931605
3.092	0.904926
3.0925	0.76256
3.093	0.539586
3.0935	0.553723
3.094	0.727894
3.0945	0.855453
3.095	0.83831
3.0955	0.678749
3.096	0.505342
3.0965	0.638097
3.097	0.837901
3.0975	0.858828
3.098	0.672784
3.0985	0.561507
3.099	0.754001
3.0995	0.868053
3.1	0.880606
3.1005	0.933643
3.101	0.970338
3.1015	0.9741
3.102	0.962228
3.1025	0.934185
3.103	0.827601
3.1035	0.654066
3.104	0.70448
3.1045	0.76392
3.105	0.588242
3.1055	0.454737
3.106	0.372583
3.1065	0.491822
3.107	0.770449
3.1075	0.907652
3.108	0.905927
3.1085	0.768441
3.109	0.660881
3.1095	0.78602
3.11	0.840643
3.1105	0.675697
3.111	0.389576
3.1115	0.388314
3.112	0.684698
3.1125	0.877339
3.113	0.93299
3.1135	0.938481
3.114	0.911109
3.1145	0.812192
3.115	0.577621
3.1155	0.389498
3.116	0.579297
3.1165	0.834864
3.117	0.931061
3.1175	0.947319
3.118	0.951804
3.1185	0.968467
3.119	0.978079
3.1195	0.978632
3.12	0.979579
3.1205	0.981622
3.121	0.97586
3.1215	0.965926
3.122	0.969826
3.1225	0.974549
3.123	0.969966
3.1235	0.962602
3.124	0.924583
3.1245	0.808267
3.125	0.667785
3.1255	0.693069
3.126	0.779787
3.1265	0.619351
3.127	0.384035
3.1275	0.494389
3.128	0.650384
3.1285	0.559749
3.129	0.582817
3.1295	0.814742
3.13	0.939955
3.1305	0.968767
3.131	0.97581
3.1315	0.976312
3.132	0.973427
3.1325	0.959978
3.133	0.956538
3.1335	0.969667
3.134	0.977707
3.1345	0.981649
3.135	0.983184
3.1355	0.984991
3.136	0.98443
3.1365	0.982035
3.137	0.979539
3.1375	0.974601
3.138	0.958409
3.1385	0.8853
3.139	0.642781
3.1395	0.365077
3.14	0.46446
3.1405	0.771599
3.141	0.917192
3.1415	0.926257
3.142	0.894657
3.1425	0.910175
3.143	0.954617
3.1435	0.966142
3.144	0.959003
3.1445	0.921648
3.145	0.86135
3.1455	0.774253
3.146	0.523432
3.1465	0.318017
3.147	0.508639
3.1475	0.792637
3.148	0.915078
3.1485	0.946397
3.149	0.931744
3.1495	0.880349
3.15	0.891045
3.1505	0.950394
3.151	0.95939
3.1515	0.950399
3.152	0.96681
3.1525	0.978925
3.153	0.978973
3.1535	0.970051
3.154	0.93809
3.1545	0.83189
3.155	0.764154
3.1555	0.856571
3.156	0.893402
3.1565	0.807365
3.157	0.827783
3.1575	0.900504
3.158	0.900456
3.1585	0.903338
3.159	0.94515
3.1595	0.961338
3.16	0.943646
3.1605	0.917795
3.161	0.938765
3.1615	0.97629
3.162	0.986797
3.1625	0.987113
3.163	0.989307
3.1635	0.991359
3.164	0.991374
3.1645	0.990504
3.165	0.988105
3.1655	0.981807
3.166	0.953963
3.1665	0.890955
3.167	0.861845
3.1675	0.926158
3.168	0.975967
3.1685	0.979917
3.169	0.973519
3.1695	0.977458
3.17	0.986445
3.1705	0.987383
3.171	0.979167
3.1715	0.962808
3.172	0.932593
3.1725	0.905519
3.173	0.85315
3.1735	0.865216
3.174	0.945864
3.1745	0.95879
3.175	0.875776
3.1755	0.757905
3.176	0.805031
3.1765	0.93688
3.177	0.977417
3.1775	0.976672
3.178	0.972166
3.1785	0.974678
3.179	0.981199
3.1795	0.984086
3.18	0.984062
3.1805	0.977328
3.181	0.939288
3.1815	0.803419
3.182	0.729869
3.1825	0.868887
3.183	0.955032
3.1835	0.911832
3.184	0.734438
3.1845	0.606727
3.185	0.756299
3.1855	0.928726
3.186	0.971113
3.1865	0.973098
3.187	0.968977
3.1875	0.962907
3.188	0.964404
3.1885	0.965198
3.189	0.963001
3.1895	0.949287
3.19	0.919703
3.1905	0.86023
3.191	0.670155
3.1915	0.371967
3.192	0.363788
3.1925	0.600821
3.193	0.602724
3.1935	0.52755
3.194	0.723707
3.1945	0.912132
3.195	0.958739
3.1955	0.956455
3.196	0.921645
3.1965	0.877007
3.197	0.834255
3.1975	0.697063
3.198	0.450227
3.1985	0.393684
3.199	0.49716
3.1995	0.630678
3.2	0.733891
3.2005	0.85671
3.201	0.87278
3.2015	0.696596
3.202	0.353385
3.2025	0.181087
3.203	0.37876
3.2035	0.663101
3.204	0.837333
3.2045	0.898302
3.205	0.861802
3.2055	0.649441
3.206	0.355718
3.2065	0.338944
3.207	0.465359
3.2075	0.674054
3.208	0.79627
3.2085	0.680398
3.209	0.429797
3.2095	0.347262
3.21	0.523901
3.2105	0.520701
3.211	0.441923
3.2115	0.367513
3.212	0.34619
3.2125	0.486098
3.213	0.474748
3.2135	0.614803
3.214	0.829717
3.2145	0.795969
3.215	0.645694
3.2155	0.593657
3.216	0.651297
3.2165	0.779161
3.217	0.789576
3.2175	0.713143
3.218	0.604712
3.2185	0.66882
3.219	0.85304
3.2195	0.899206
3.22	0.868087
3.2205	0.692349
3.221	0.381773
3.2215	0.379916
3.222	0.548722
3.2225	0.448018
3.223	0.421494
3.2235	0.560708
3.224	0.525747
3.2245	0.353103
3.225	0.451865
3.2255	0.550413
3.226	0.408935
3.2265	0.516774
3.227	0.79042
3.2275	0.903112
3.228	0.906203
3.2285	0.81049
3.229	0.634942
3.2295	0.439088
3.23	0.201455
3.2305	0.114374
3.231	0.231662
3.2315	0.470279
3.232	0.587958
3.2325	0.643668
3.233	0.826041
3.2335	0.933285
3.234	0.957712
3.2345	0.9645
3.235	0.96642
3.2355	0.961654
3.236	0.922683
3.2365	0.891325
3.237	0.928612
3.2375	0.948545
3.238	0.935339
3.2385	0.872357
3.239	0.725158
3.2395	0.62672
3.24	0.438112
3.2405	0.271899
3.241	0.492879
3.2415	0.78435
3.242	0.899069
3.2425	0.912545
3.243	0.88338
3.2435	0.742312
3.244	0.578835
3.2445	0.632455
3.245	0.581587
3.2455	0.552654
3.246	0.706002
3.2465	0.62004
3.247	0.38034
3.2475	0.467795
3.248	0.687125
3.2485	0.618636
3.249	0.475875
3.2495	0.486888
3.25	0.361256
3.2505	0.375215
3.251	0.677527
3.2515	0.88023
3.252	0.940548
3.2525	0.956559
3.253	0.952705
3.2535	0.931147
3.254	0.930192
3.2545	0.952059
3.255	0.962914
3.2555	0.960575
3.256	0.955027
3.2565	0.950196
3.257	0.93347
3.2575	0.924138
3.258	0.91519
3.2585	0.899324
3.259	0.834244
3.2595	0.622358
3.26	0.290632
3.2605	0.177612
3.261	0.364303
3.2615	0.591919
3.262	0.718367
3.2625	0.653116
3.263	0.409348
3.2635	0.396869
3.264	0.682744
3.2645	0.867231
3.265	0.923037
3.2655	0.94432
3.266	0.945245
3.2665	0.92416
3.267	0.891314
3.2675	0.76251
3.268	0.600474
3.2685	0.710021
3.269	0.839089
3.2695	0.751536
3.27	0.461117
3.2705	0.275949
3.271	0.367321
3.2715	0.367256
3.272	0.339199
3.2725	0.507924
3.273	0.71527
3.2735	0.85655
3.274	0.903718
3.2745	0.913587
3.275	0.916683
3.2755	0.92385
3.276	0.920957
3.2765	0.923518
3.277	0.929007
3.2775	0.919493
3.278	0.908608
3.2785	0.889877
3.279	0.774206
3.2795	0.468878
3.28	0.212755
3.2805	0.241558
3.281	0.522928
3.2815	0.817373
3.282	0.930214
3.2825	0.95613
3.283	0.96243
3.2835	0.965973
3.284	0.96701
3.2845	0.963489
3.285	0.957529
3.2855	0.957693
3.286	0.963185
3.2865	0.957673
3.287	0.954312
3.2875	0.963725
3.288	0.967884
3.2885	0.963463
3.289	0.958741
3.2895	0.955587
3.29	0.925591
3.2905	0.787707
3.291	0.60025
3.2915	0.702054
3.292	0.882345
3.2925	0.927705
3.293	0.910487
3.2935	0.797076
3.294	0.656905
3.2945	0.720719
3.295	0.692393
3.2955	0.47486
3.296	0.536492
3.2965	0.7804
3.297	0.854671
3.2975	0.729312
3.298	0.422927
3.2985	0.302156
3.299	0.388108
3.2995	0.386316
3.3	0.562319
3.3005	0.758497
3.301	0.762978
3.3015	0.60676
3.302	0.658039
3.3025	0.8565
3.303	0.928024
3.3035	0.927359
3.304	0.868289
3.3045	0.666352
3.305	0.52115
3.3055	0.697786
3.306	0.862328
3.3065	0.919691
3.307	0.937618
3.3075	0.922394
3.308	0.836704
3.3085	0.697447
3.309	0.707079
3.3095	0.709257
3.31	0.657698
3.3105	0.73613
3.311	0.829742
3.3115	0.810187
3.312	0.612603
3.3125	0.267902
3.313	5.21E-02
3.3135	9.16E-03
3.314	6.40E-03
3.3145	1.39E-02
3.315	3.50E-02
3.3155	6.53E-02
3.316	8.28E-02
3.3165	9.59E-02
3.317	0.133024
3.3175	0.207718
3.318	0.22324
3.3185	0.24507
3.319	0.222841
3.3195	0.204214
3.32	0.360322
3.3205	0.517887
3.321	0.578023
3.3215	0.507774
3.322	0.423886
3.3225	0.55412
3.323	0.631753
3.3235	0.617311
3.324	0.706267
3.3245	0.768589
3.325	0.781035
3.3255	0.792213
3.326	0.827158
3.3265	0.848658
3.327	0.793033
3.3275	0.710724
3.328	0.634097
3.3285	0.63023
3.329	0.600619
3.3295	0.678359
3.33	0.858142
3.3305	0.941252
3.331	0.956657
3.3315	0.957551
3.332	0.958816
3.3325	0.962006
3.333	0.956896
3.3335	0.907263
3.334	0.721462
3.3345	0.605155
3.335	0.779453
3.3355	0.915579
3.336	0.956736
3.3365	0.969817
3.337	0.968209
3.3375	0.954394
3.338	0.887568
3.3385	0.831315
3.339	0.804091
3.3395	0.71204
3.34	0.730085
3.3405	0.811122
3.341	0.881109
3.3415	0.847563
3.342	0.778252
3.3425	0.800975
3.343	0.915312
3.3435	0.960185
3.344	0.948326
3.3445	0.881056
3.345	0.68564
3.3455	0.377657
3.346	0.367883
3.3465	0.61857
3.347	0.652388
3.3475	0.705409
3.348	0.884397
3.3485	0.960173
3.349	0.973559
3.3495	0.975509
3.35	0.961749
3.3505	0.893332
3.351	0.834589
3.3515	0.904094
3.352	0.957476
3.3525	0.942812
3.353	0.929724
3.3535	0.935915
3.354	0.891916
3.3545	0.840973
3.355	0.774033
3.3555	0.748853
3.356	0.753975
3.3565	0.505864
3.357	0.279797
3.3575	0.416139
3.358	0.611031
3.3585	0.805491
3.359	0.929979
3.3595	0.953436
3.36	0.954166
3.3605	0.927274
3.361	0.828282
3.3615	0.790884
3.362	0.865809
3.3625	0.882227
3.363	0.734913
3.3635	0.693738
3.364	0.863642
3.3645	0.952317
3.365	0.951903
3.3655	0.921637
3.366	0.930099
3.3665	0.950629
3.367	0.925965
3.3675	0.819788
3.368	0.543777
3.3685	0.291103
3.369	0.447473
3.3695	0.76451
3.37	0.916064
3.3705	0.931725
3.371	0.843332
3.3715	0.729469
3.372	0.806861
3.3725	0.903462
3.373	0.936549
3.3735	0.96145
3.374	0.970076
3.3745	0.973711
3.375	0.974525
3.3755	0.963021
3.376	0.909186
3.3765	0.838621
3.377	0.863678
3.3775	0.92896
3.378	0.957505
3.3785	0.947913
3.379	0.871694
3.3795	0.608531
3.38	0.260402
3.3805	0.239271
3.381	0.569743
3.3815	0.83106
3.382	0.89872
3.3825	0.910386
3.383	0.893914
3.3835	0.894207
3.384	0.923967
3.3845	0.885743
3.385	0.832537
3.3855	0.836124
3.386	0.855248
3.3865	0.920148
3.387	0.964385
3.3875	0.970496
3.388	0.976551
3.3885	0.978224
3.389	0.971316
3.3895	0.964733
3.39	0.957364
3.3905	0.90504
3.391	0.748136
3.3915	0.433579
3.392	0.207017
3.3925	0.353676
3.393	0.719255
3.3935	0.911047
3.394	0.909844
3.3945	0.880057
3.395	0.929018
3.3955	0.96823
3.396	0.971734
3.3965	0.962753
3.397	0.939754
3.3975	0.920189
3.398	0.946556
3.3985	0.974141
3.399	0.979145
3.3995	0.978985
3.4	0.977746
3.4005	0.974362
3.401	0.973062
3.4015	0.971251
3.402	0.962296
3.4025	0.907988
3.403	0.7016
3.4035	0.445532
3.404	0.339256
3.4045	0.409213
3.405	0.681547
3.4055	0.849438
3.406	0.863058
3.4065	0.835968
3.407	0.824835
3.4075	0.902323
3.408	0.9215
3.4085	0.856385
3.409	0.833843
3.4095	0.890458
3.41	0.920248
3.4105	0.894835
3.411	0.909995
3.4115	0.956789
3.412	0.964198
3.4125	0.941019
3.413	0.937864
3.4135	0.962148
3.414	0.965446
3.4145	0.927461
3.415	0.770885
3.4155	0.575025
3.416	0.424462
3.4165	0.352799
3.417	0.581139
3.4175	0.870676
3.418	0.964236
3.4185	0.976201
3.419	0.975755
3.4195	0.97482
3.42	0.972491
3.4205	0.972698
3.421	0.972352
3.4215	0.972784
3.422	0.97458
3.4225	0.970632
3.423	0.964178
3.4235	0.959946
3.424	0.954448
3.4245	0.950831
3.425	0.936704
3.4255	0.881684
3.426	0.849197
3.4265	0.868926
3.427	0.8039
3.4275	0.664491
3.428	0.56537
3.4285	0.489241
3.429	0.542731
3.4295	0.764511
3.43	0.933815
3.4305	0.967447
3.431	0.972193
3.4315	0.971986
3.432	0.969061
3.4325	0.977088
3.433	0.981402
3.4335	0.975609
3.434	0.965493
3.4345	0.965816
3.435	0.963286
3.4355	0.940528
3.436	0.9369
3.4365	0.946711
3.437	0.947169
3.4375	0.954118
3.438	0.956759
3.4385	0.946654
3.439	0.915609
3.4395	0.819726
3.44	0.72503
3.4405	0.677978
3.441	0.716567
3.4415	0.751219
3.442	0.875842
3.4425	0.952313
3.443	0.955342
3.4435	0.963318
3.444	0.974502
3.4445	0.981241
3.445	0.977062
3.4455	0.947146
3.446	0.894918
3.4465	0.903457
3.447	0.954295
3.4475	0.951682
3.448	0.899846
3.4485	0.904261
3.449	0.933568
3.4495	0.948508
3.45	0.962554
3.4505	0.969309
3.451	0.942605
3.4515	0.878201
3.452	0.846682
3.4525	0.847506
3.453	0.826004
3.4535	0.805616
3.454	0.757628
3.4545	0.833054
3.455	0.919841
3.4555	0.903732
3.456	0.926185
3.4565	0.968774
3.457	0.980381
3.4575	0.982447
3.458	0.984409
3.4585	0.984697
3.459	0.983178
3.4595	0.980857
3.46	0.976466
3.4605	0.976885
3.461	0.975449
3.4615	0.957813
3.462	0.944764
3.4625	0.962351
3.463	0.962342
3.4635	0.949677
3.464	0.930327
3.4645	0.897747
3.465	0.860777
3.4655	0.837887
3.466	0.813658
3.4665	0.833673
3.467	0.888329
3.4675	0.932734
3.468	0.934435
3.4685	0.955204
3.469	0.975783
3.4695	0.981283
3.47	0.983245
3.4705	0.981601
3.471	0.979024
3.4715	0.973959
3.472	0.965724
3.4725	0.958531
3.473	0.960141
3.4735	0.945758
3.474	0.910438
3.4745	0.921824
3.475	0.948586
3.4755	0.936566
3.476	0.943557
3.4765	0.941703
3.477	0.91962
3.4775	0.907718
3.478	0.905668
3.4785	0.903427
3.479	0.925739
3.4795	0.937714
3.48	0.939584
3.4805	0.949761
3.481	0.956368
3.4815	0.966044
3.482	0.967521
3.4825	0.961496
3.483	0.958999
3.4835	0.963928
3.484	0.974608
3.4845	0.982479
3.485	0.974416
3.4855	0.942892
3.486	0.9298
3.4865	0.949357
3.487	0.954398
3.4875	0.935286
3.488	0.92308
3.4885	0.924733
3.489	0.898803
3.4895	0.910657
3.49	0.929317
3.4905	0.928714
3.491	0.940377
3.4915	0.958831
3.492	0.967681
3.4925	0.955232
3.493	0.945202
3.4935	0.943177
3.494	0.938689
3.4945	0.945856
3.495	0.966067
3.4955	0.979855
3.496	0.982483
3.4965	0.976555
3.497	0.971506
3.4975	0.975335
3.498	0.969073
3.4985	0.943714
3.499	0.935165
3.4995	0.952847
3.5	0.942779
3.5005	0.949553
3.501	0.973839
3.5015	0.975598
3.502	0.970696
3.5025	0.967557
3.503	0.948384
3.5035	0.912745
3.504	0.907442
3.5045	0.950751
3.505	0.976009
3.5055	0.978497
3.506	0.977686
3.5065	0.981564
3.507	0.98119
3.5075	0.974813
3.508	0.973055
3.5085	0.979383
3.509	0.976958
3.5095	0.964833
3.51	0.967346
3.5105	0.973005
3.511	0.952919
3.5115	0.915866
3.512	0.938926
3.5125	0.973685
3.513	0.980862
3.5135	0.977464
3.514	0.969667
3.5145	0.963595
3.515	0.969691
3.5155	0.977795
3.516	0.977186
3.5165	0.976715
3.517	0.977755
3.5175	0.978275
3.518	0.978778
3.5185	0.979022
3.519	0.973735
3.5195	0.970208
3.52	0.971109
3.5205	0.96747
3.521	0.965111
3.5215	0.972732
3.522	0.98045
3.5225	0.978169
3.523	0.971279
3.5235	0.971089
3.524	0.976826
3.5245	0.981872
3.525	0.980489
3.5255	0.973051
3.526	0.966321
3.5265	0.960351
3.527	0.938213
3.5275	0.9305
3.528	0.950956
3.5285	0.958471
3.529	0.957268
3.5295	0.972749
3.53	0.979303
3.5305	0.968011
3.531	0.939297
3.5315	0.940327
3.532	0.95881
3.5325	0.961489
3.533	0.939516
3.5335	0.923645
3.534	0.952557
3.5345	0.964482
3.535	0.915373
3.5355	0.825825
3.536	0.823702
3.5365	0.909582
3.537	0.956045
3.5375	0.972328
3.538	0.968238
3.5385	0.919809
3.539	0.867049
3.5395	0.874065
3.54	0.907486
3.5405	0.912076
3.541	0.891475
3.5415	0.903767
3.542	0.921397
3.5425	0.907581
3.543	0.901402
3.5435	0.91928
3.544	0.935896
3.5445	0.945234
3.545	0.926935
3.5455	0.920098
3.546	0.931621
3.5465	0.944574
3.547	0.945668
3.5475	0.912074
3.548	0.90012
3.5485	0.947883
3.549	0.969853
3.5495	0.957474
3.55	0.939629
3.5505	0.953047
3.551	0.966065
3.5515	0.964815
3.552	0.960022
3.5525	0.952072
3.553	0.956667
3.5535	0.940686
3.554	0.90969
3.5545	0.917086
3.555	0.929258
3.5555	0.943012
3.556	0.962334
3.5565	0.966882
3.557	0.962393
3.5575	0.959987
3.558	0.959338
3.5585	0.962753
3.559	0.961485
3.5595	0.941429
3.56	0.918981
3.5605	0.934856
3.561	0.966569
3.5615	0.973793
3.562	0.97397
3.5625	0.976781
3.563	0.977541
3.5635	0.969693
3.564	0.950836
3.5645	0.921313
3.565	0.919345
3.5655	0.937235
3.566	0.931731
3.5665	0.923614
3.567	0.905083
3.5675	0.896484
3.568	0.93824
3.5685	0.959854
3.569	0.937808
3.5695	0.912643
3.57	0.938018
3.5705	0.960418
3.571	0.951413
3.5715	0.92122
3.572	0.910264
3.5725	0.922898
3.573	0.929045
3.5735	0.898943
3.574	0.872863
3.5745	0.886682
3.575	0.907136
3.5755	0.916375
3.576	0.921886
3.5765	0.936242
3.577	0.950343
3.5775	0.949449
3.578	0.94521
3.5785	0.954836
3.579	0.956739
3.5795	0.941448
3.58	0.946234
3.5805	0.950867
3.581	0.906092
3.5815	0.876206
3.582	0.905449
3.5825	0.940295
3.583	0.960894
3.5835	0.957746
3.584	0.943934
3.5845	0.932716
3.585	0.930282
3.5855	0.91599
3.586	0.902207
3.5865	0.93131
3.587	0.928013
3.5875	0.902307
3.588	0.931428
3.5885	0.959924
3.589	0.962933
3.5895	0.951848
3.59	0.946102
3.5905	0.948
3.591	0.944888
3.5915	0.940796
3.592	0.934417
3.5925	0.932933
3.593	0.935693
3.5935	0.938691
3.594	0.952892
3.5945	0.967472
3.595	0.96534
3.5955	0.960942
3.596	0.964956
3.5965	0.957361
3.597	0.937694
3.5975	0.943816
3.598	0.963113
3.5985	0.966543
3.599	0.962844
3.5995	0.961271
3.6	0.952012
3.6005	0.933596
3.601	0.944212
3.6015	0.965004
3.602	0.969396
3.6025	0.97193
3.603	0.972449
3.6035	0.970739
3.604	0.969196
3.6045	0.955209
3.605	0.929814
3.6055	0.932771
3.606	0.941504
3.6065	0.915545
3.607	0.879127
3.6075	0.863993
3.608	0.879005
3.6085	0.92855
3.609	0.959786
3.6095	0.966156
3.61	0.958062
3.6105	0.956517
3.611	0.961473
3.6115	0.950554
3.612	0.935593
3.6125	0.941193
3.613	0.948923
3.6135	0.933864
3.614	0.942987
3.6145	0.964465
3.615	0.971173
3.6155	0.974503
3.616	0.973143
3.6165	0.963466
3.617	0.944978
3.6175	0.945918
3.618	0.964671
3.6185	0.972434
3.619	0.972242
3.6195	0.967692
3.62	0.965079
3.6205	0.969765
3.621	0.96647
3.6215	0.963526
3.622	0.972409
3.6225	0.975672
3.623	0.972264
3.6235	0.968792
3.624	0.969407
3.6245	0.96934
3.625	0.959006
3.6255	0.932472
3.626	0.922369
3.6265	0.930829
3.627	0.916014
3.6275	0.885131
3.628	0.909499
3.6285	0.958512
3.629	0.975325
3.6295	0.976598
3.63	0.976434
3.6305	0.975067
3.631	0.96347
3.6315	0.941043
3.632	0.944235
3.6325	0.964198
3.633	0.971509
3.6335	0.970897
3.634	0.961996
3.6345	0.946414
3.635	0.952796
3.6355	0.96188
3.636	0.962747
3.6365	0.962393
3.637	0.960807
3.6375	0.969105
3.638	0.975701
3.6385	0.975735
3.639	0.97212
3.6395	0.9667
3.64	0.966662
3.6405	0.96866
3.641	0.971111
3.6415	0.971835
3.642	0.971609
3.6425	0.973651
3.643	0.974625
3.6435	0.975309
3.644	0.972609
3.6445	0.968946
3.645	0.968297
3.6455	0.949205
3.646	0.914245
3.6465	0.902249
3.647	0.885358
3.6475	0.85845
3.648	0.899949
3.6485	0.957804
3.649	0.972988
3.6495	0.974703
3.65	0.972861
3.6505	0.963019
3.651	0.948325
3.6515	0.952429
3.652	0.961829
3.6525	0.966255
3.653	0.966784
3.6535	0.964487
3.654	0.969239
3.6545	0.969668
3.655	0.968141
3.6555	0.971761
3.656	0.974317
3.6565	0.974646
3.657	0.974294
3.6575	0.973711
3.658	0.972862
3.6585	0.972974
3.659	0.971435
3.6595	0.970852
3.66	0.973559
3.6605	0.975037
3.661	0.972164
3.6615	0.965083
3.662	0.964672
3.6625	0.969743
3.663	0.965622
3.6635	0.959343
3.664	0.965199
3.6645	0.97222
3.665	0.972947
3.6655	0.972829
3.666	0.97223
3.6665	0.958827
3.667	0.90151
3.6675	0.843226
3.668	0.879601
3.6685	0.930474
3.669	0.954547
3.6695	0.966879
3.67	0.968736
3.6705	0.964376
3.671	0.951682
3.6715	0.931518
3.672	0.924859
3.6725	0.929222
3.673	0.928496
3.6735	0.920973
3.674	0.91349
3.6745	0.936315
3.675	0.926115
3.6755	0.899767
3.676	0.900392
3.6765	0.923449
3.677	0.954556
3.6775	0.96427
3.678	0.953106
3.6785	0.948765
3.679	0.957066
3.6795	0.955702
3.68	0.955654
3.6805	0.957673
3.681	0.959466
3.6815	0.956582
3.682	0.957294
3.6825	0.960569
3.683	0.953462
3.6835	0.949405
3.684	0.959916
3.6845	0.967194
3.685	0.969494
3.6855	0.971233
3.686	0.96947
3.6865	0.953455
3.687	0.91498
3.6875	0.904727
3.688	0.915724
3.6885	0.931318
3.689	0.956957
3.6895	0.967475
3.69	0.969818
3.6905	0.967809
3.691	0.961765
3.6915	0.960269
3.692	0.958936
3.6925	0.9534
3.693	0.960988
3.6935	0.968205
3.694	0.968262
3.6945	0.96802
3.695	0.965724
3.6955	0.967336
3.696	0.971278
3.6965	0.970144
3.697	0.961354
3.6975	0.957745
3.698	0.966585
3.6985	0.971387
3.699	0.971139
3.6995	0.969206
3.7	0.967471
3.7005	0.966899
3.701	0.967687
3.7015	0.970745
3.702	0.972351
3.7025	0.972456
3.703	0.972304
3.7035	0.972151
3.704	0.971008
3.7045	0.969419
3.705	0.969555
3.7055	0.969047
3.706	0.965557
3.7065	0.954251
3.707	0.948369
3.7075	0.951221
3.708	0.956452
3.7085	0.958367
3.709	0.93577
3.7095	0.923494
3.71	0.937113
3.7105	0.94676
3.711	0.958703
3.7115	0.961543
3.712	0.960178
3.7125	0.960083
3.713	0.954371
3.7135	0.935639
3.714	0.938771
3.7145	0.957518
3.715	0.955563
3.7155	0.949595
3.716	0.955687
3.7165	0.965832
3.717	0.964578
3.7175	0.951438
3.718	0.949397
3.7185	0.961826
3.719	0.967171
3.7195	0.967757
3.72	0.968846
3.7205	0.969582
3.721	0.969165
3.7215	0.969031
3.722	0.968951
3.7225	0.968434
3.723	0.968255
3.7235	0.967955
3.724	0.965195
3.7245	0.962591
3.725	0.963653
3.7255	0.964775
3.726	0.95871
3.7265	0.954084
3.727	0.956627
3.7275	0.956715
3.728	0.952632
3.7285	0.958213
3.729	0.964826
3.7295	0.958471
3.73	0.932438
3.7305	0.921277
3.731	0.945347
3.7315	0.963377
3.732	0.967692
3.7325	0.966361
3.733	0.956099
3.7335	0.941093
3.734	0.934306
3.7345	0.927341
3.735	0.944264
3.7355	0.955813
3.736	0.946738
3.7365	0.94587
3.737	0.953926
3.7375	0.951914
3.738	0.946716
3.7385	0.955405
3.739	0.961146
3.7395	0.959821
3.74	0.962213
3.7405	0.961669
3.741	0.954291
3.7415	0.937848
3.742	0.940359
3.7425	0.956983
3.743	0.961913
3.7435	0.961155
3.744	0.963443
3.7445	0.963799
3.745	0.96211
3.7455	0.961978
3.746	0.9622
3.7465	0.961553
3.747	0.961724
3.7475	0.964254
3.748	0.963502
3.7485	0.961044
3.749	0.959367
3.7495	0.956794
3.75	0.941959
3.7505	0.926481
3.751	0.943862
3.7515	0.957857
3.752	0.951871
3.7525	0.949971
3.753	0.956223
3.7535	0.960555
3.754	0.953245
3.7545	0.929536
3.755	0.930248
3.7555	0.954137
3.756	0.962634
3.7565	0.963002
3.757	0.964176
3.7575	0.96407
3.758	0.957864
3.7585	0.945166
3.759	0.946724
3.7595	0.954378
3.76	0.950154
3.7605	0.949717
3.761	0.958287
3.7615	0.960977
3.762	0.958321
3.7625	0.951511
3.763	0.942192
3.7635	0.946624
3.764	0.95351
3.7645	0.948576
3.765	0.943345
3.7655	0.930132
3.766	0.928727
3.7665	0.948602
3.767	0.955903
3.7675	0.959238
3.768	0.961953
3.7685	0.962817
3.769	0.962376
3.7695	0.960321
3.77	0.95518
3.7705	0.939833
3.771	0.92589
3.7715	0.941242
3.772	0.953501
3.7725	0.957334
3.773	0.959935
3.7735	0.955679
3.774	0.938549
3.7745	0.924094
3.775	0.940453
3.7755	0.957156
3.776	0.960434
3.7765	0.959503
3.777	0.955702
3.7775	0.955874
3.778	0.959674
3.7785	0.96011
3.779	0.957239
3.7795	0.952154
3.78	0.953958
3.7805	0.956083
3.781	0.947101
3.7815	0.939272
3.782	0.949248
3.7825	0.956885
3.783	0.957232
3.7835	0.954505
3.784	0.94657
3.7845	0.939252
3.785	0.937907
3.7855	0.94516
3.786	0.954133
3.7865	0.958082
3.787	0.958674
3.7875	0.957849
3.788	0.955339
3.7885	0.951236
3.789	0.940028
3.7895	0.918225
3.79	0.914392
3.7905	0.935293
3.791	0.939027
3.7915	0.928447
3.792	0.93412
3.7925	0.950303
3.793	0.955206
3.7935	0.948006
3.794	0.928687
3.7945	0.92897
3.795	0.947762
3.7955	0.954231
3.796	0.954549
3.7965	0.954655
3.797	0.951357
3.7975	0.941283
3.798	0.932028
3.7985	0.943605
3.799	0.953952
3.7995	0.953702
3.8	0.948189
3.8005	0.94813
3.801	0.95169
3.8015	0.951767
3.802	0.952173
3.8025	0.953701
3.803	0.95324
3.8035	0.948699
3.804	0.937403
3.8045	0.933336
3.805	0.942457
3.8055	0.950685
3.806	0.953093
3.8065	0.954091
3.807	0.953561
3.8075	0.950704
3.808	0.944095
3.8085	0.940909
3.809	0.939626
3.8095	0.941151
3.81	0.945255
3.8105	0.945632
3.811	0.9438
3.8115	0.946392
3.812	0.942749
3.8125	0.928249
3.813	0.923969
3.8135	0.923096
3.814	0.920637
3.8145	0.931634
3.815	0.94671
3.8155	0.951294
3.816	0.951362
3.8165	0.946164
3.817	0.935488
3.8175	0.936889
3.818	0.947019
3.8185	0.946882
3.819	0.934259
3.8195	0.931259
3.82	0.945068
3.8205	0.951424
3.821	0.95229
3.8215	0.952729
3.822	0.952631
3.8225	0.952716
3.823	0.95255
3.8235	0.951507
3.824	0.946661
3.8245	0.943365
3.825	0.946165
3.8255	0.946294
3.826	0.948873
3.8265	0.950884
3.827	0.948081
3.8275	0.94147
3.828	0.94247
3.8285	0.948225
3.829	0.950353
3.8295	0.950311
3.83	0.950129
3.8305	0.949135
3.831	0.947758
3.8315	0.94695
3.832	0.94473
3.8325	0.941079
3.833	0.942419
3.8335	0.937582
3.834	0.928223
3.8345	0.92708
3.835	0.925434
3.8355	0.931417
3.836	0.938349
3.8365	0.936384
3.837	0.934162
3.8375	0.939368
3.838	0.939117
3.8385	0.93787
3.839	0.940563
3.8395	0.938541
3.84	0.935341
3.8405	0.933882
3.841	0.938203
3.8415	0.939135
3.842	0.937807
3.8425	0.937824
3.843	0.933812
3.8435	0.929725
3.844	0.932453
3.8445	0.932913
3.845	0.929874
3.8455	0.928703
3.846	0.924244
3.8465	0.920728
3.847	0.917082
3.8475	0.919894
3.848	0.925033
3.8485	0.928701
3.849	0.934041
3.8495	0.936864
3.85	0.934467
3.8505	0.930737
3.851	0.928745
3.8515	0.932448
3.852	0.935147
3.8525	0.934826
3.853	0.935577
3.8535	0.935525
3.854	0.93425
3.8545	0.933749
3.855	0.92973
3.8555	0.923342
3.856	0.918752
3.8565	0.923236
3.857	0.928109
3.8575	0.928554
3.858	0.92733
3.8585	0.923526
3.859	0.91742
3.8595	0.914741
3.86	0.9178
3.8605	0.918888
3.861	0.91786
3.8615	0.913771
3.862	0.911921
3.8625	0.906589
3.863	0.903742
3.8635	0.903075
3.864	0.905489
3.8645	0.905416
3.865	0.902936
3.8655	0.900784
3.866	0.894997
3.8665	0.89608
3.867	0.8918
3.8675	0.888945
3.868	0.881803
3.8685	0.879199
3.869	0.872808
3.8695	0.877688
3.87	0.876347
3.8705	0.875193
3.871	0.869973
3.8715	0.871683
3.872	0.863107
3.8725	0.857891
3.873	0.853052
3.8735	0.861413
3.874	0.856082
3.8745	0.857502
3.875	0.853694
3.8755	0.857976
3.876	0.850589
3.8765	0.854288
3.877	0.841144
3.8775	0.844252
3.878	0.832838
3.8785	0.846408
3.879	0.836933
3.8795	0.847461
3.88	0.83496
3.8805	0.841739
3.881	0.831917
3.8815	0.8392
3.882	0.835053
3.8825	0.833881
3.883	0.839726
3.8835	0.832677
3.884	0.84441
3.8845	0.829642
3.885	0.844704
3.8855	0.825646
3.886	0.838799
3.8865	0.832759
3.887	0.838945
3.8875	0.845074
3.888	0.834617
3.8885	0.850821
3.889	0.83309
3.8895	0.849211
3.89	0.838663
3.8905	0.841198
3.891	0.842966
3.8915	0.84215
3.892	0.85968
3.8925	0.843967
3.893	0.859674
3.8935	0.854009
3.894	0.859433
3.8945	0.870162
3.895	0.861966
3.8955	0.881525
3.896	0.873781
3.8965	0.882509
3.897	0.891453
3.8975	0.883793
3.898	0.89686
3.8985	0.895642
3.899	0.900696
3.8995	0.908662
3.9	0.9064
3.9005	0.911723
3.901	0.917304
3.9015	0.91625
3.902	0.910559
3.9025	0.906759
3.903	0.903094
3.9035	0.889218
3.904	0.892596
3.9045	0.893332
3.905	0.881528
3.9055	0.889926
3.906	0.874252
3.9065	0.867166
3.907	0.884407
3.9075	0.865927
3.908	0.874095
3.9085	0.877137
3.909	0.854655
3.9095	0.868342
3.91	0.840038
3.9105	0.82327
3.911	0.857637
3.9115	0.844189
3.912	0.853455
3.9125	0.866647
3.913	0.838783
3.9135	0.860152
3.914	0.857601
3.9145	0.835877
3.915	0.863753
3.9155	0.845064
3.916	0.834484
3.9165	0.862385
3.917	0.836152
3.9175	0.843073
3.918	0.864339
3.9185	0.830057
3.919	0.84845
3.9195	0.861138
3.92	0.828189
3.9205	0.855069
3.921	0.855896
3.9215	0.826316
3.922	0.859362
3.9225	0.853518
3.923	0.829826
3.9235	0.864313
3.924	0.851499
3.9245	0.83095
3.925	0.860902
3.9255	0.841973
3.926	0.831002
3.9265	0.865545
3.927	0.843662
3.9275	0.834833
3.928	0.868159
3.9285	0.844007
3.929	0.837041
3.9295	0.873608
3.93	0.854957
3.9305	0.845576
3.931	0.876021
3.9315	0.858071
3.932	0.846746
3.9325	0.876671
3.933	0.863182
3.9335	0.85099
3.934	0.879775
3.9345	0.868716
3.935	0.853343
3.9355	0.880081
3.936	0.873907
3.9365	0.855674
3.937	0.879473
3.9375	0.878448
3.938	0.857641
3.9385	0.877673
3.939	0.883237
3.9395	0.862479
3.94	0.876768
3.9405	0.886995
3.941	0.864199
3.9415	0.866568
3.942	0.87902
3.9425	0.863016
3.943	0.867899
3.9435	0.889841
3.944	0.880875
3.9445	0.87378
3.945	0.88983
3.9455	0.885635
3.946	0.874254
3.9465	0.887593
3.947	0.890243
3.9475	0.876562
3.948	0.883671
3.9485	0.893011
3.949	0.882598
3.9495	0.882471
3.95	0.893207
3.9505	0.887102
3.951	0.881275
3.9515	0.891002
3.952	0.889733
3.9525	0.877902
3.953	0.883325
3.9535	0.890738
3.954	0.880187
3.9545	0.877087
3.955	0.88894
3.9555	0.888908
3.956	0.885073
3.9565	0.890769
3.957	0.891553
3.9575	0.885898
3.958	0.885621
3.9585	0.88102
3.959	0.876652
3.9595	0.882635
3.96	0.889808
3.9605	0.889902
3.961	0.886099
3.9615	0.888649
3.962	0.890741
3.9625	0.887482
3.963	0.886867
3.9635	0.88975
3.964	0.888715
3.9645	0.885868
3.965	0.887724
3.9655	0.888606
3.966	0.886405
3.9665	0.885843
3.967	0.887391
3.9675	0.886989
3.968	0.884388
3.9685	0.885002
3.969	0.88613
3.9695	0.884577
3.97	0.883767
3.9705	0.884811
3.971	0.884458
3.9715	0.882371
3.972	0.882814
3.9725	0.883403
3.973	0.882349
3.9735	0.881376
3.974	0.880879
3.9745	0.878776
3.975	0.870345
3.9755	0.866563
3.976	0.872037
3.9765	0.873851
3.977	0.87435
3.9775	0.877167
3.978	0.878974
3.9785	0.877804
3.979	0.875318
3.9795	0.871919
3.98	0.868847
3.9805	0.86835
3.981	0.867821
3.9815	0.862332
3.982	0.866201
3.9825	0.87277
3.983	0.874163
3.9835	0.873785
3.984	0.873718
3.9845	0.872833
3.985	0.872482
3.9855	0.871923
3.986	0.871459
3.9865	0.871358
3.987	0.870867
3.9875	0.87071
3.988	0.869873
3.9885	0.869549
3.989	0.86932
3.9895	0.868636
3.99	0.868397
3.9905	0.867712
3.991	0.867519
3.9915	0.866837
3.992	0.865667
3.9925	0.86376
3.993	0.862997
3.9935	0.864041
3.994	0.863956
3.9945	0.863075
3.995	0.86235
3.9955	0.861814
3.996	0.861334
3.9965	0.861712
3.997	0.861752
3.9975	0.861274
3.998	0.860787
3.9985	0.860356
3.999	0.859581
3.9995	0.858554
4	0.857816
4.0005	0.857238
4.001	0.856812
4.0015	0.85598
4.002	0.85543
4.0025	0.854953
4.003	0.854482
4.0035	0.8537
4.004	0.853008
4.0045	0.852262
4.005	0.851577
4.0055	0.851112
4.006	0.850087
4.0065	0.848901
4.007	0.844922
4.0075	0.841143
4.008	0.837303
4.0085	0.831355
4.009	0.831843
4.0095	0.831114
4.01	0.832894
4.0105	0.8396
4.011	0.84127
4.0115	0.841584
4.012	0.840741
4.0125	0.840213
4.013	0.83903
4.0135	0.837371
4.014	0.837632
4.0145	0.836289
4.015	0.835235
4.0155	0.833991
4.016	0.833022
4.0165	0.833522
4.017	0.831478
4.0175	0.831334
4.018	0.830461
4.0185	0.828559
4.019	0.829124
4.0195	0.826236
4.02	0.826508
4.0205	0.825326
4.021	0.823084
4.0215	0.82439
4.022	0.820677
4.0225	0.821491
4.023	0.820079
4.0235	0.817357
4.024	0.819437
4.0245	0.814875
4.025	0.815893
4.0255	0.814269
4.026	0.810358
4.0265	0.813308
4.027	0.808211
4.0275	0.809066
4.028	0.809198
4.0285	0.8048
4.029	0.808077
4.0295	0.803396
4.03	0.803153
4.0305	0.804654
4.031	0.798761
4.0315	0.802171
4.032	0.798175
4.0325	0.795099
4.033	0.799039
4.0335	0.792361
4.034	0.795228
4.0345	0.793927
4.035	0.78645
4.0355	0.786867
4.036	0.777861
4.0365	0.77988
4.037	0.786765
4.0375	0.781679
4.038	0.788025
4.0385	0.78408
4.039	0.780555
4.0395	0.78649
4.04	0.778156
4.0405	0.781082
4.041	0.781172
4.0415	0.770634
4.042	0.773886
4.0425	0.768547
4.043	0.767362
4.0435	0.775512
4.044	0.767617
4.0445	0.769781
4.045	0.772183
4.0455	0.767205
4.046	0.774132
4.0465	0.768837
4.047	0.767081
4.0475	0.772731
4.048	0.765352
4.0485	0.768565
4.049	0.76938
4.0495	0.763115
4.05	0.768765
4.0505	0.765266
4.051	0.762809
4.0515	0.767577
4.052	0.761955
4.0525	0.763458
4.053	0.765312
4.0535	0.759951
4.054	0.763295
4.0545	0.762233
4.055	0.758984
4.0555	0.762016
4.056	0.759616
4.0565	0.759328
4.057	0.761554
4.0575	0.758753
4.058	0.759551
4.0585	0.760318
4.059	0.758276
4.0595	0.758961
4.06	0.758907
4.0605	0.757866
4.061	0.757987
4.0615	0.75805
4.062	0.756869
4.0625	0.754602
4.063	0.752265
4.0635	0.751246
4.064	0.749173
4.0645	0.745584
4.065	0.74358
4.0655	0.738116
4.066	0.736423
4.0665	0.740352
4.067	0.736826
4.0675	0.734619
4.068	0.736207
4.0685	0.730102
4.069	0.729215
4.0695	0.730026
4.07	0.723505
4.0705	0.725593
4.071	0.72484
4.0715	0.717885
4.072	0.721453
4.0725	0.718354
4.073	0.712569
4.0735	0.717194
4.074	0.7115
4.0745	0.707516
4.075	0.712582
4.0755	0.705047
4.076	0.703143
4.0765	0.706248
4.077	0.696427
4.0775	0.697004
4.078	0.700014
4.0785	0.692303
4.079	0.695682
4.0795	0.694744
4.08	0.683912
4.0805	0.690143
4.081	0.690721
4.0815	0.683311
4.082	0.689384
4.0825	0.685874
4.083	0.678878
4.0835	0.685014
4.084	0.680324
4.0845	0.675612
4.085	0.681108
4.0855	0.674708
4.086	0.672244
4.0865	0.677334
4.087	0.669193
4.0875	0.668036
4.088	0.672923
4.0885	0.664711
4.089	0.66388
4.0895	0.667357
4.09	0.660098
4.0905	0.661026
4.091	0.662392
4.0915	0.654272
4.092	0.656871
4.0925	0.658474
4.093	0.650344
4.0935	0.651669
4.094	0.652821
4.0945	0.646357
4.095	0.647177
4.0955	0.642936
4.096	0.636733
4.0965	0.642803
4.097	0.642901
4.0975	0.636095
4.098	0.6377
4.0985	0.637181
4.099	0.632175
4.0995	0.633809
4.1	0.631017
4.1005	0.626044
4.101	0.628636
4.1015	0.62686
4.102	0.621499
4.1025	0.621801
4.103	0.620286
4.1035	0.616721
4.104	0.617556
4.1045	0.614617
4.105	0.609917
4.1055	0.611055
4.106	0.609309
4.1065	0.605214
4.107	0.604574
4.1075	0.602078
4.108	0.598913
4.1085	0.598929
4.109	0.596651
4.1095	0.59232
4.11	0.591386
4.1105	0.589656
4.111	0.586079
4.1115	0.584842
4.112	0.581451
4.1125	0.576864
4.113	0.575876
4.1135	0.574148
4.114	0.571924
4.1145	0.570831
4.115	0.568527
4.1155	0.564373
4.116	0.561495
4.1165	0.558732
4.117	0.554747
4.1175	0.55359
4.118	0.553175
4.1185	0.550269
4.119	0.547668
4.1195	0.545651
4.12	0.542608
4.1205	0.539871
4.121	0.537386
4.1215	0.533854
4.122	0.531086
4.1225	0.529056
4.123	0.526101
4.1235	0.523002
4.124	0.519933
4.1245	0.516619
4.125	0.513998
4.1255	0.511514
4.126	0.508174
4.1265	0.503908
4.127	0.500604
4.1275	0.498383
4.128	0.49596
4.1285	0.493209
4.129	0.490186
4.1295	0.486409
4.13	0.482558
4.1305	0.479887
4.131	0.477177
4.1315	0.474034
4.132	0.470769
4.1325	0.46686
4.133	0.462857
4.1335	0.460205
4.134	0.457406
4.1345	0.454001
4.135	0.45054
4.1355	0.44648
4.136	0.442337
4.1365	0.439558
4.137	0.436622
4.1375	0.433076
4.138	0.429406
4.1385	0.425275
4.139	0.421118
4.1395	0.418051
4.14	0.414875
4.1405	0.411233
4.141	0.407393
4.1415	0.403163
4.142	0.398797
4.1425	0.395406
4.143	0.392128
4.1435	0.388423
4.144	0.384491
4.1445	0.380277
4.145	0.375786
4.1455	0.372042
4.146	0.368564
4.1465	0.36469
4.147	0.360633
4.1475	0.356263
4.148	0.351266
4.1485	0.346823
4.149	0.343542
4.1495	0.33995
4.15	0.335873
4.1505	0.331609
4.151	0.326987
4.1515	0.322012
4.152	0.317776
4.1525	0.314033
4.153	0.309672
4.1535	0.305272
4.154	0.300907
4.1545	0.296232
4.155	0.292064
4.1555	0.288208
4.156	0.283924
4.1565	0.279477
4.157	0.274986
4.1575	0.270285
4.158	0.265275
4.1585	0.260721
4.159	0.256691
4.1595	0.25238
4.16	0.247852
4.1605	0.24324
4.161	0.238545
4.1615	0.233858
4.162	0.229376
4.1625	0.224871
4.163	0.220264
4.1635	0.215633
4.164	0.210992
4.1645	0.206248
4.165	0.201562
4.1655	0.197042
4.166	0.19245
4.1665	0.187824
4.167	0.183209
4.1675	0.178556
4.168	0.173876
4.1685	0.169254
4.169	0.164711
4.1695	0.160156
4.17	0.155581
4.1705	0.151018
4.171	0.146478
4.1715	0.141915
4.172	0.137391
4.1725	0.132966
4.173	0.128518
4.1735	0.12408
4.174	0.119711
4.1745	0.115351
4.175	0.111002
4.1755	0.106699
4.176	1.02E-01
4.1765	9.83E-02
4.177	9.41E-02
4.1775	8.99E-02
4.178	8.58E-02
4.1785	8.17E-02
4.179	7.76E-02
4.1795	7.35E-02
4.18	6.94E-02
4.1805	6.53E-02
4.181	6.10E-02
4.1815	5.69E-02
4.182	5.24E-02
4.1825	4.84E-02
4.183	4.38E-02
4.1835	4.01E-02
4.184	3.55E-02
4.1845	3.19E-02
4.185	2.82E-02
4.1855	2.43E-02
4.186	2.21E-02
4.1865	1.76E-02
4.187	1.63E-02
4.1875	1.25E-02
4.188	1.07E-02
4.1885	9.07E-03
4.189	6.17E-03
4.1895	5.83E-03
4.19	3.78E-03
4.1905	2.75E-03
4.191	2.40E-03
4.1915	1.19E-03
4.192	9.75E-04
4.1925	6.85E-04
4.193	2.71E-04
4.1935	2.28E-04
4.194	1.26E-04
4.1945	3.52E-05
4.195	2.48E-05
4.1955	1.07E-05
4.196	1.29E-06
4.1965	4.16E-08
4.197	8.13E-11
4.1975	0
4.198	0
4.1985	0
4.199	0
4.1995	0
4.2	0
4.2005	0
4.201	0
4.2015	0
4.202	0
4.2025	0
4.203	0
4.2035	0
4.204	0
4.2045	0
4.205	0
4.2055	0
4.206	0
4.2065	0
4.207	0
4.2075	0
4.208	0
4.2085	0
4.209	0
4.2095	0
4.21	0
4.2105	0
4.211	0
4.2115	0
4.212	0
4.2125	0
4.213	0
4.2135	0
4.214	0
4.2145	0
4.215	0
4.2155	0
4.216	0
4.2165	0
4.217	0
4.2175	0
4.218	0
4.2185	0
4.219	0
4.2195	0
4.22	0
4.2205	0
4.221	0
4.2215	0
4.222	0
4.2225	0
4.223	0
4.2235	0
4.224	0
4.2245	0
4.225	0
4.2255	0
4.226	0
4.2265	0
4.227	0
4.2275	0
4.228	0
4.2285	0
4.229	0
4.2295	0
4.23	0
4.2305	0
4.231	0
4.2315	0
4.232	0
4.2325	0
4.233	0
4.2335	0
4.234	0
4.2345	0
4.235	0
4.2355	0
4.236	0
4.2365	0
4.237	0
4.2375	0
4.238	0
4.2385	0
4.239	0
4.2395	0
4.24	0
4.2405	0
4.241	0
4.2415	0
4.242	0
4.2425	0
4.243	0
4.2435	0
4.244	0
4.2445	0
4.245	0
4.2455	0
4.246	0
4.2465	0
4.247	0
4.2475	0
4.248	0
4.2485	0
4.249	0
4.2495	0
4.25	0
4.2505	0
4.251	0
4.2515	0
4.252	0
4.2525	0
4.253	0
4.2535	0
4.254	0
4.2545	0
4.255	0
4.2555	0
4.256	0
4.2565	0
4.257	0
4.2575	0
4.258	0
4.2585	0
4.259	0
4.2595	0
4.26	0
4.2605	0
4.261	0
4.2615	0
4.262	0
4.2625	0
4.263	0
4.2635	0
4.264	0
4.2645	0
4.265	0
4.2655	0
4.266	0
4.2665	0
4.267	0
4.2675	0
4.268	0
4.2685	0
4.269	0
4.2695	0
4.27	0
4.2705	0
4.271	0
4.2715	0
4.272	0
4.2725	0
4.273	0
4.2735	0
4.274	0
4.2745	0
4.275	0
4.2755	0
4.276	0
4.2765	0
4.277	0
4.2775	0
4.278	0
4.2785	0
4.279	0
4.2795	0
4.28	0
4.2805	0
4.281	0
4.2815	0
4.282	0
4.2825	0
4.283	0
4.2835	0
4.284	0
4.2845	0
4.285	0
4.2855	0
4.286	0
4.2865	0
4.287	0
4.2875	0
4.288	0
4.2885	0
4.289	0
4.2895	0
4.29	0
4.2905	0
4.291	0
4.2915	0
4.292	0
4.2925	0
4.293	0
4.2935	0
4.294	0
4.2945	0
4.295	0
4.2955	0
4.296	0
4.2965	0
4.297	0
4.2975	0
4.298	0
4.2985	0
4.299	0
4.2995	0
4.3	0
4.3005	0
4.301	0
4.3015	0
4.302	0
4.3025	0
4.303	0
4.3035	0
4.304	0
4.3045	0
4.305	0
4.3055	0
4.306	0
4.3065	0
4.307	0
4.3075	0
4.308	0
4.3085	0
4.309	0
4.3095	0
4.31	0
4.3105	0
4.311	0
4.3115	0
4.312	0
4.3125	0
4.313	0
4.3135	0
4.314	0
4.3145	0
4.315	0
4.3155	0
4.316	0
4.3165	0
4.317	0
4.3175	0
4.318	0
4.3185	0
4.319	0
4.3195	0
4.32	0
4.3205	0
4.321	0
4.3215	0
4.322	0
4.3225	0
4.323	0
4.3235	0
4.324	0
4.3245	0
4.325	0
4.3255	0
4.326	0
4.3265	0
4.327	0
4.3275	0
4.328	0
4.3285	0
4.329	0
4.3295	0
4.33	0
4.3305	0
4.331	0
4.3315	0
4.332	0
4.3325	0
4.333	0
4.3335	0
4.334	0
4.3345	0
4.335	0
4.3355	0
4.336	0
4.3365	0
4.337	0
4.3375	0
4.338	0
4.3385	0
4.339	0
4.3395	0
4.34	0
4.3405	0
4.341	0
4.3415	0
4.342	0
4.3425	0
4.343	0
4.3435	0
4.344	0
4.3445	0
4.345	0
4.3455	0
4.346	0
4.3465	0
4.347	0
4.3475	0
4.348	0
4.3485	0
4.349	0
4.3495	0
4.35	0
4.3505	0
4.351	0
4.3515	0
4.352	0
4.3525	0
4.353	0
4.3535	0
4.354	0
4.3545	0
4.355	0
4.3555	0
4.356	0
4.3565	0
4.357	0
4.3575	0
4.358	0
4.3585	0
4.359	0
4.3595	0
4.36	0
4.3605	0
4.361	0
4.3615	0
4.362	0
4.3625	0
4.363	1.72E-10
4.3635	6.34E-08
4.364	1.92E-06
4.3645	1.54E-05
4.365	3.32E-05
4.3655	1.93E-05
4.366	3.10E-06
4.3665	1.84E-06
4.367	1.09E-05
4.3675	1.78E-05
4.368	7.45E-06
4.3685	8.04E-07
4.369	3.37E-08
4.3695	5.57E-07
4.37	7.16E-06
4.3705	2.79E-05
4.371	3.67E-05
4.3715	1.63E-05
4.372	7.91E-06
4.3725	1.19E-04
4.373	7.43E-04
4.3735	1.45E-03
4.374	8.93E-04
4.3745	1.81E-04
4.375	2.08E-04
4.3755	1.37E-03
4.376	3.24E-03
4.3765	2.68E-03
4.377	7.51E-04
4.3775	3.22E-04
4.378	2.33E-03
4.3785	7.42E-03
4.379	9.72E-03
4.3795	1.09E-02
4.38	1.32E-02
4.3805	8.85E-03
4.381	4.52E-03
4.3815	2.38E-03
4.382	6.74E-04
4.3825	3.53E-04
4.383	1.09E-03
4.3835	3.39E-03
4.384	4.92E-03
4.3845	2.27E-03
4.385	3.25E-04
4.3855	7.34E-05
4.386	6.09E-04
4.3865	1.87E-03
4.387	1.92E-03
4.3875	7.20E-04
4.388	9.48E-05
4.3885	3.75E-05
4.389	3.52E-04
4.3895	1.05E-03
4.39	9.16E-04
4.3905	2.70E-04
4.391	4.68E-05
4.3915	9.98E-06
4.392	5.31E-05
4.3925	2.45E-04
4.393	6.73E-04
4.3935	9.79E-04
4.394	4.99E-04
4.3945	7.92E-05
4.395	1.54E-05
4.3955	1.78E-04
4.396	8.57E-04
4.3965	1.27E-03
4.397	6.10E-04
4.3975	1.06E-04
4.398	1.21E-05
4.3985	8.17E-05
4.399	5.74E-04
4.3995	1.74E-03
4.4	2.05E-03
4.4005	8.40E-04
4.401	1.15E-04
4.4015	2.53E-05
4.402	2.77E-04
4.4025	1.25E-03
4.403	1.96E-03
4.4035	1.20E-03
4.404	3.43E-04
4.4045	4.70E-05
4.405	6.67E-05
4.4055	4.14E-04
4.406	1.10E-03
4.4065	1.77E-03
4.407	1.58E-03
4.4075	5.24E-04
4.408	6.23E-05
4.4085	1.09E-04
4.409	6.07E-04
4.4095	2.06E-03
4.41	3.67E-03
4.4105	2.58E-03
4.411	6.71E-04
4.4115	6.73E-05
4.412	1.50E-04
4.4125	1.69E-03
4.413	6.95E-03
4.4135	1.03E-02
4.414	5.82E-03
4.4145	1.24E-03
4.415	1.12E-04
4.4155	5.12E-04
4.416	4.25E-03
4.4165	1.30E-02
4.417	1.51E-02
4.4175	6.57E-03
4.418	1.02E-03
4.4185	1.22E-04
4.419	1.05E-03
4.4195	6.59E-03
4.42	1.47E-02
4.4205	1.25E-02
4.421	5.64E-03
4.4215	2.53E-03
4.422	7.01E-04
4.4225	8.70E-04
4.423	5.62E-03
4.4235	1.50E-02
4.424	1.61E-02
4.4245	1.19E-02
4.425	7.51E-03
4.4255	2.24E-03
4.426	1.17E-03
4.4265	6.62E-03
4.427	1.55E-02
4.4275	1.74E-02
4.428	2.75E-02
4.4285	3.32E-02
4.429	1.54E-02
4.4295	2.89E-03
4.43	3.93E-03
4.4305	1.23E-02
4.431	2.90E-02
4.4315	6.67E-02
4.432	7.70E-02
4.4325	3.77E-02
4.433	7.29E-03
4.4335	1.04E-03
4.434	4.00E-03
4.4345	2.41E-02
4.435	7.79E-02
4.4355	9.97E-02
4.436	4.86E-02
4.4365	1.16E-02
4.437	3.10E-03
4.4375	4.31E-03
4.438	2.65E-02
4.4385	7.91E-02
4.439	9.95E-02
4.4395	7.51E-02
4.44	3.90E-02
4.4405	1.77E-02
4.441	6.39E-03
4.4415	1.19E-02
4.442	4.75E-02
4.4425	0.111807
4.443	0.139913
4.4435	9.09E-02
4.444	6.53E-02
4.4445	4.23E-02
4.445	1.37E-02
4.4455	2.95E-02
4.446	0.114648
4.4465	0.164869
4.447	0.108428
4.4475	0.105383
4.448	0.105043
4.4485	5.04E-02
4.449	2.72E-02
4.4495	8.08E-02
4.45	0.143296
4.4505	0.108739
4.451	0.1153
4.4515	0.144147
4.452	0.116309
4.4525	7.13E-02
4.453	3.89E-02
4.4535	7.34E-02
4.454	8.44E-02
4.4545	8.55E-02
4.455	0.131985
4.4555	0.123668
4.456	0.119464
4.4565	8.79E-02
4.457	3.34E-02
4.4575	2.99E-02
4.458	4.28E-02
4.4585	9.34E-02
4.459	0.132284
4.4595	0.138161
4.46	0.176365
4.4605	0.108987
4.461	3.31E-02
4.4615	2.97E-02
4.462	5.20E-02
4.4625	0.116321
4.463	0.135577
4.4635	0.127098
4.464	0.167561
4.4645	0.105318
4.465	4.06E-02
4.4655	3.20E-02
4.466	4.56E-02
4.4665	1.04E-01
4.467	0.138437
4.4675	0.114366
4.468	0.133491
4.4685	9.87E-02
4.469	5.25E-02
4.4695	5.14E-02
4.47	4.84E-02
4.4705	1.02E-01
4.471	0.195656
4.4715	0.155885
4.472	9.18E-02
4.4725	0.110443
4.473	9.62E-02
4.4735	6.76E-02
4.474	5.28E-02
4.4745	4.73E-02
4.475	0.124033
4.4755	0.199798
4.476	0.139527
4.4765	0.136914
4.477	0.202619
4.4775	0.133811
4.478	7.19E-02
4.4785	8.70E-02
4.479	9.08E-02
4.4795	0.131743
4.48	0.189036
4.4805	0.145057
4.481	0.144492
4.4815	0.215599
4.482	0.154374
4.4825	9.79E-02
4.483	0.177399
4.4835	0.184303
4.484	0.167388
4.4845	0.24225
4.485	0.194858
4.4855	0.149792
4.486	0.237634
4.4865	0.219243
4.487	0.135956
4.4875	0.19473
4.488	0.255457
4.4885	0.190152
4.489	0.216172
4.4895	0.316932
4.49	0.254493
4.4905	0.249561
4.491	0.367586
4.4915	0.319103
4.492	0.283136
4.4925	0.417119
4.493	0.383365
4.4935	0.287604
4.494	0.39584
4.4945	0.431177
4.495	0.364683
4.4955	0.39091
4.496	0.44579
4.4965	0.535497
4.497	0.586892
4.4975	0.523889
4.498	0.488932
4.4985	0.384632
4.499	0.400382
4.4995	0.489445
4.5	0.380625
4.5005	0.330347
4.501	0.437955
4.5015	0.391749
4.502	0.283492
4.5025	0.38773
4.503	0.408245
4.5035	0.246426
4.504	0.26199
4.5045	0.361898
4.505	0.274777
4.5055	0.195984
4.506	0.27325
4.5065	0.307035
4.507	0.22048
4.5075	0.187612
4.508	0.294082
4.5085	0.306642
4.509	0.186271
4.5095	0.239695
4.51	0.360367
4.5105	0.263569
4.511	0.195925
4.5115	0.335469
4.512	0.360386
4.5125	0.214391
4.513	0.230089
4.5135	0.364751
4.514	0.295955
4.5145	0.176449
4.515	0.279449
4.5155	0.344307
4.516	0.210598
4.5165	0.176083
4.517	0.306222
4.5175	0.307598
4.518	0.187864
4.5185	0.197043
4.519	0.311643
4.5195	0.289651
4.52	0.177096
4.5205	0.233471
4.521	0.366694
4.5215	0.304132
4.522	0.183156
4.5225	0.289605
4.523	0.402876
4.5235	0.288944
4.524	0.199003
4.5245	0.336162
4.525	0.411425
4.5255	0.2686
4.526	0.199986
4.5265	0.355818
4.527	0.409307
4.5275	0.257327
4.528	0.234688
4.5285	0.406438
4.529	0.41268
4.5295	0.241174
4.53	0.247965
4.5305	0.409902
4.531	0.387224
4.5315	0.227001
4.532	0.224569
4.5325	0.360301
4.533	0.371492
4.5335	0.243751
4.534	0.247279
4.5345	0.372851
4.535	0.387148
4.5355	0.256587
4.536	0.244301
4.5365	0.402083
4.537	0.444607
4.5375	0.279811
4.538	0.234626
4.5385	0.39046
4.539	0.43004
4.5395	0.290457
4.54	0.267625
4.5405	0.470237
4.541	0.536215
4.5415	0.362033
4.542	0.297874
4.5425	0.491186
4.543	0.56432
4.5435	0.385925
4.544	0.289699
4.5445	0.456942
4.545	0.523092
4.5455	0.347362
4.546	0.256245
4.5465	0.449928
4.547	0.549194
4.5475	0.398648
4.548	0.28315
4.5485	0.413334
4.549	0.527077
4.5495	0.448759
4.55	0.332895
4.5505	0.383206
4.551	0.503741
4.5515	0.494564
4.552	0.395209
4.5525	0.348681
4.553	0.460594
4.5535	0.54155
4.554	0.484504
4.5545	0.35427
4.555	0.416957
4.5555	0.551092
4.556	0.563848
4.5565	0.394392
4.557	0.369845
4.5575	0.556378
4.558	0.639744
4.5585	0.464672
4.559	0.317285
4.5595	0.484744
4.56	0.658972
4.5605	0.588631
4.561	0.419795
4.5615	0.526858
4.562	0.708863
4.5625	0.675709
4.563	0.488671
4.5635	0.50098
4.564	0.680986
4.5645	0.700037
4.565	0.519837
4.5655	0.376682
4.566	0.45928
4.5665	0.590606
4.567	0.565031
4.5675	0.446549
4.568	0.544816
4.5685	0.692153
4.569	0.65192
4.5695	0.545171
4.57	0.515518
4.5705	0.630949
4.571	0.681443
4.5715	0.625362
4.572	0.537242
4.5725	0.492612
4.573	0.491745
4.5735	0.517412
4.574	0.605269
4.5745	0.585656
4.575	0.631372
4.5755	0.673185
4.576	0.694694
4.5765	0.646124
4.577	0.607887
4.5775	0.669506
4.578	0.720196
4.5785	0.72615
4.579	0.642712
4.5795	0.594931
4.58	0.552354
4.5805	0.569521
4.581	0.661414
4.5815	0.625355
4.582	0.648277
4.5825	0.759012
4.583	0.80379
4.5835	0.719225
4.584	0.61396
4.5845	0.680943
4.585	0.791254
4.5855	0.804876
4.586	0.714845
4.5865	0.668629
4.587	0.68918
4.5875	0.60706
4.588	0.620531
4.5885	0.661509
4.589	0.734689
4.5895	0.825194
4.59	0.836785
4.5905	0.773173
4.591	0.720737
4.5915	0.786074
4.592	0.844664
4.5925	0.827593
4.593	0.770689
4.5935	0.752472
4.594	0.781239
4.5945	0.695429
4.595	0.567883
4.5955	0.648584
4.596	0.760879
4.5965	0.824099
4.597	0.832788
4.5975	0.812491
4.598	0.80545
4.5985	0.809281
4.599	0.830288
4.5995	0.836844
4.6	0.832781
4.6005	0.824087
4.601	0.807534
4.6015	0.7977
4.602	0.675957
4.6025	0.576183
4.603	0.692095
4.6035	0.800053
4.604	0.84016
4.6045	0.834265
4.605	0.822408
4.6055	0.799585
4.606	0.80783
4.6065	0.831728
4.607	0.845438
4.6075	0.861137
4.608	0.854039
4.6085	0.832261
4.609	0.812123
4.6095	0.701466
4.61	0.582566
4.6105	0.691608
4.611	0.81719
4.6115	0.852204
4.612	0.856019
4.6125	0.860417
4.613	0.869496
4.6135	0.861481
4.614	0.848644
4.6145	0.857807
4.615	0.877147
4.6155	0.875874
4.616	0.850375
4.6165	0.831417
4.617	0.764205
4.6175	0.61129
4.618	0.6471
4.6185	0.792799
4.619	0.858548
4.6195	0.876954
4.62	0.870651
4.6205	0.86931
4.621	0.873809
4.6215	0.868606
4.622	0.845439
4.6225	0.843938
4.623	0.865431
4.6235	0.863453
4.624	0.85284
4.6245	0.81992
4.625	0.675839
4.6255	0.520658
4.626	0.600163
4.6265	0.778347
4.627	0.86836
4.6275	0.883709
4.628	0.874423
4.6285	0.872449
4.629	0.884147
4.6295	0.887716
4.63	0.881914
4.6305	0.877764
4.631	0.885961
4.6315	0.889248
4.632	0.874421
4.6325	0.807944
4.633	0.660986
4.6335	0.650734
4.634	0.801679
4.6345	0.866511
4.635	0.8845
4.6355	0.894994
4.636	0.89077
4.6365	0.866783
4.637	0.851877
4.6375	0.875207
4.638	0.893396
4.6385	0.889759
4.639	0.887286
4.6395	0.893439
4.64	0.885431
4.6405	0.817277
4.641	0.670139
4.6415	0.683067
4.642	0.831484
4.6425	0.886276
4.643	0.888319
4.6435	0.893301
4.644	0.899834
4.6445	0.893759
4.645	0.848089
4.6455	0.776578
4.646	0.810931
4.6465	0.880252
4.647	0.896066
4.6475	0.893547
4.648	0.889221
4.6485	0.847813
4.649	0.731973
4.6495	0.706957
4.65	0.828712
4.6505	0.892246
4.651	0.904003
4.6515	0.903191
4.652	0.900906
4.6525	0.903767
4.653	0.905865
4.6535	0.905691
4.654	0.900745
4.6545	0.895394
4.655	0.89527
4.6555	0.898696
4.656	0.884466
4.6565	0.832281
4.657	0.768363
4.6575	0.750599
4.658	0.832186
4.6585	0.892099
4.659	0.904125
4.6595	0.904761
4.66	0.888819
4.6605	0.822288
4.661	0.764663
4.6615	0.830839
4.662	0.888337
4.6625	0.898226
4.663	0.903718
4.6635	0.90647
4.664	0.90818
4.6645	0.911427
4.665	0.913567
4.6655	0.912156
4.666	0.912889
4.6665	0.91535
4.667	0.9153
4.6675	0.911209
4.668	0.907739
4.6685	0.912312
4.669	0.915339
4.6695	0.913936
4.67	0.912917
4.6705	0.912251
4.671	0.910539
4.6715	0.911613
4.672	0.913497
4.6725	0.909236
4.673	0.892127
4.6735	0.819874
4.674	0.675147
4.6745	0.688425
4.675	0.836746
4.6755	0.900898
4.676	0.903256
4.6765	0.872818
4.677	0.859323
4.6775	0.886578
4.678	0.88051
4.6785	0.814191
4.679	0.767346
4.6795	0.82833
4.68	0.866678
4.6805	0.834578
4.681	0.700042
4.6815	0.648464
4.682	0.734263
4.6825	0.700986
4.683	0.759753
4.6835	0.876072
4.684	0.910995
4.6845	0.912389
4.685	0.906468
4.6855	0.907143
4.686	0.912133
4.6865	0.912171
4.687	0.910197
4.6875	0.90764
4.688	0.902721
4.6885	0.899836
4.689	0.896408
4.6895	0.88724
4.69	0.877473
4.6905	0.814807
4.691	0.667581
4.6915	0.668858
4.692	0.801993
4.6925	0.836224
4.693	0.839847
4.6935	0.857808
4.694	0.850517
4.6945	0.818831
4.695	0.772173
4.6955	0.680724
4.696	0.659617
4.6965	0.710432
4.697	0.764415
4.6975	0.792308
4.698	0.782805
4.6985	0.782397
4.699	0.768594
4.6995	0.646579
4.7	0.551514
4.7005	0.667461
4.701	0.755655
4.7015	0.756936
4.702	0.793387
4.7025	0.800993
4.703	0.774533
4.7035	0.73548
4.704	0.778108
4.7045	0.788231
4.705	0.743751
4.7055	0.684888
4.706	0.66134
4.7065	0.710518
4.707	0.713899
4.7075	0.650539
4.708	0.631944
4.7085	0.5656
4.709	0.55907
4.7095	0.680231
4.71	0.69976
4.7105	0.709257
4.711	0.723096
4.7115	0.725313
4.712	0.74648
4.7125	0.718568
4.713	0.690422
4.7135	0.709152
4.714	0.693691
4.7145	0.714963
4.715	0.737588
4.7155	0.700299
4.716	0.693258
4.7165	0.701007
4.717	0.663159
4.7175	0.548638
4.718	0.536605
4.7185	0.654119
4.719	0.716756
4.7195	0.736585
4.72	0.777782
4.7205	0.782497
4.721	0.726978
4.7215	0.702191
4.722	0.727303
4.7225	0.747779
4.723	0.787637
4.7235	0.802145
4.724	0.769121
4.7245	0.741028
4.725	0.721479
4.7255	0.724627
4.726	0.716859
4.7265	0.593425
4.727	0.564443
4.7275	0.581232
4.728	0.471252
4.7285	0.530345
4.729	0.677843
4.7295	0.749
4.73	0.821806
4.7305	0.839821
4.731	0.85354
4.7315	0.857047
4.732	0.839792
4.7325	0.871322
4.733	0.90687
4.7335	0.90953
4.734	0.895816
4.7345	0.894115
4.735	0.843293
4.7355	0.691345
4.736	0.648185
4.7365	0.80559
4.737	0.887253
4.7375	0.870415
4.738	0.819789
4.7385	0.766002
4.739	0.748907
4.7395	0.763712
4.74	0.777417
4.7405	0.764161
4.741	0.747766
4.7415	0.74598
4.742	0.742401
4.7425	0.761213
4.743	0.767163
4.7435	0.747825
4.744	0.747537
4.7445	0.676395
4.745	0.526542
4.7455	0.549302
4.746	0.684934
4.7465	0.757871
4.747	0.742431
4.7475	0.701225
4.748	0.737111
4.7485	0.77537
4.749	0.764677
4.7495	0.750749
4.75	0.776049
4.7505	0.815357
4.751	0.818039
4.7515	0.81089
4.752	0.808211
4.7525	0.816029
4.753	0.815592
4.7535	0.78326
4.754	0.676671
4.7545	0.597414
4.755	0.692651
4.7555	0.781763
4.756	0.809597
4.7565	0.821938
4.757	0.835069
4.7575	0.821616
4.758	0.811762
4.7585	0.798464
4.759	0.801785
4.7595	0.801197
4.76	0.795771
4.7605	0.722631
4.761	0.677902
4.7615	0.760158
4.762	0.80536
4.7625	0.80077
4.763	0.751177
4.7635	0.667393
4.764	0.606064
4.7645	0.718985
4.765	0.803849
4.7655	0.826988
4.766	0.824211
4.7665	0.804531
4.767	0.797265
4.7675	0.718862
4.768	0.665823
4.7685	0.753237
4.769	0.828265
4.7695	0.836357
4.77	0.828072
4.7705	0.827436
4.771	0.815859
4.7715	0.823362
4.772	0.823723
4.7725	0.776814
4.773	0.68664
4.7735	0.630721
4.774	0.71527
4.7745	0.783624
4.775	0.789025
4.7755	0.74143
4.776	0.66588
4.7765	0.573545
4.777	0.579113
4.7775	0.696616
4.778	0.762158
4.7785	0.814972
4.779	0.843245
4.7795	0.83304
4.78	0.819984
4.7805	0.779268
4.781	0.793257
4.7815	0.840862
4.782	0.839768
4.7825	0.765524
4.783	0.627362
4.7835	0.557875
4.784	0.451706
4.7845	0.330434
4.785	0.46455
4.7855	0.642882
4.786	0.768239
4.7865	0.833808
4.787	0.835102
4.7875	0.763356
4.788	0.702229
4.7885	0.7541
4.789	0.823454
4.7895	0.820439
4.79	0.740473
4.7905	0.604286
4.791	0.591774
4.7915	0.67172
4.792	0.780893
4.7925	0.793446
4.793	0.712009
4.7935	0.733536
4.794	0.798485
4.7945	0.779827
4.795	0.703223
4.7955	0.765579
4.796	0.834486
4.7965	0.83841
4.797	0.8603
4.7975	0.868012
4.798	0.811419
4.7985	0.705918
4.799	0.706516
4.7995	0.784619
4.8	0.831721
4.8005	0.852112
4.801	0.866786
4.8015	0.821284
4.802	0.689166
4.8025	0.618827
4.803	0.620655
4.8035	0.679957
4.804	0.810705
4.8045	0.849598
4.805	0.800767
4.8055	0.711575
4.806	0.67031
4.8065	0.770011
4.807	0.832116
4.8075	0.837306
4.808	0.835642
4.8085	0.816001
4.809	0.720439
4.8095	0.6131
4.81	0.611421
4.8105	0.553591
4.811	0.445294
4.8115	0.388045
4.812	0.302243
4.8125	0.185388
4.813	8.37E-02
4.8135	2.69E-02
4.814	7.89E-03
4.8145	3.20E-02
4.815	0.196446
4.8155	0.504545
4.816	0.718285
4.8165	0.791704
4.817	0.808532
4.8175	0.826677
4.818	0.839718
4.8185	0.822031
4.819	0.830577
4.8195	0.83841
4.82	0.814124
4.8205	0.699971
4.821	0.558165
4.8215	0.629629
4.822	0.678282
4.8225	0.714502
4.823	0.772126
4.8235	0.793642
4.824	0.836978
4.8245	0.826127
4.825	0.749783
4.8255	0.646332
4.826	0.640255
4.8265	0.786155
4.827	0.855621
4.8275	0.868464
4.828	0.859853
4.8285	0.815676
4.829	0.68331
4.8295	0.572676
4.83	0.705223
4.8305	0.82864
4.831	0.858206
4.8315	0.870792
4.832	0.846865
4.8325	0.720936
4.833	0.538715
4.8335	0.602677
4.834	0.771415
4.8345	0.851512
4.835	0.888073
4.8355	0.871795
4.836	0.75221
4.8365	0.548163
4.837	0.565209
4.8375	0.755445
4.838	0.849906
4.8385	0.875639
4.839	0.856356
4.8395	0.751119
4.84	0.477047
4.8405	0.258119
4.841	0.414059
4.8415	0.636558
4.842	0.577191
4.8425	0.295907
4.843	0.166841
4.8435	0.255304
4.844	0.362138
4.8445	0.601786
4.845	0.805739
4.8455	0.876498
4.846	0.88794
4.8465	0.857216
4.847	0.701147
4.8475	0.491659
4.848	0.58606
4.8485	0.799125
4.849	0.878582
4.8495	0.889695
4.85	0.866563
4.8505	0.754538
4.851	0.528319
4.8515	0.518896
4.852	0.705148
4.8525	0.673736
4.853	0.449865
4.8535	0.456348
4.854	0.624408
4.8545	0.537993
4.855	0.484099
4.8555	0.706543
4.856	0.865123
4.8565	0.903355
4.857	0.903745
4.8575	0.85443
4.858	0.67564
4.8585	0.505889
4.859	0.656439
4.8595	0.849918
4.86	0.910551
4.8605	0.915575
4.861	0.887457
4.8615	0.756156
4.862	0.545495
4.8625	0.611847
4.863	0.827976
4.8635	0.910703
4.864	0.922221
4.8645	0.904792
4.865	0.807752
4.8655	0.597164
4.866	0.577375
4.8665	0.791252
4.867	0.899594
4.8675	0.916248
4.868	0.910494
4.8685	0.853455
4.869	0.67376
4.8695	0.569636
4.87	0.748572
4.8705	0.882938
4.871	0.907099
4.8715	0.918783
4.872	0.897051
4.8725	0.762575
4.873	0.599094
4.8735	0.706233
4.874	0.871438
4.8745	0.921931
4.875	0.93039
4.8755	0.911309
4.876	0.816635
4.8765	0.646008
4.877	0.677381
4.8775	0.84772
4.878	0.907579
4.8785	0.907751
4.879	0.89995
4.8795	0.859529
4.88	0.72035
4.8805	0.67784
4.881	0.831277
4.8815	0.914675
4.882	0.931748
4.8825	0.935506
4.883	0.910615
4.8835	0.796511
4.884	0.695255
4.8845	0.803777
4.885	0.901055
4.8855	0.881835
4.886	0.763093
4.8865	0.70627
4.887	0.75266
4.8875	0.715616
4.888	0.785748
4.8885	0.897917
4.889	0.930746
4.8895	0.934637
4.89	0.926138
4.8905	0.880055
4.891	0.761176
4.8915	0.67658
4.892	0.538097
4.8925	0.397881
4.893	0.592406
4.8935	0.820564
4.894	0.879536
4.8945	0.824141
4.895	0.791545
4.8955	0.864124
4.896	0.902466
4.8965	0.895658
4.897	0.854203
4.8975	0.720922
4.898	0.422808
4.8985	0.149278
4.899	0.194079
4.8995	0.498551
4.9	0.755201
4.9005	0.861112
4.901	0.895029
4.9015	0.885962
4.902	0.846039
4.9025	0.869858
4.903	0.920954
4.9035	0.936015
4.904	0.938327
4.9045	0.940169
4.905	0.930863
4.9055	0.894635
4.906	0.88418
4.9065	0.904669
4.907	0.878005
4.9075	0.757859
4.908	0.649912
4.9085	0.710327
4.909	0.805512
4.9095	0.873698
4.91	0.925605
4.9105	0.946031
4.911	0.949373
4.9115	0.951197
4.912	0.949335
4.9125	0.935107
4.913	0.920176
4.9135	0.931186
4.914	0.944437
4.9145	0.946875
4.915	0.944274
4.9155	0.922575
4.916	0.866939
4.9165	0.851236
4.917	0.906518
4.9175	0.941022
4.918	0.947912
4.9185	0.951983
4.919	0.952822
4.9195	0.947052
4.92	0.936385
4.9205	0.936211
4.921	0.947108
4.9215	0.952179
4.922	0.952867
4.9225	0.952694
4.923	0.951505
4.9235	0.945117
4.924	0.938827
4.9245	0.944175
4.925	0.948717
4.9255	0.945665
4.926	0.94082
4.9265	0.943039
4.927	0.946279
4.9275	0.940995
4.928	0.939491
4.9285	0.947973
4.929	0.952428
4.9295	0.952144
4.93	0.950056
4.9305	0.947529
4.931	0.939741
4.9315	0.925494
4.932	0.912843
4.9325	0.858349
4.933	0.694851
4.9335	0.564451
4.934	0.493586
4.9345	0.498823
4.935	0.71727
4.9355	0.866054
4.936	0.918015
4.9365	0.938539
4.937	0.944284
4.9375	0.945592
4.938	0.945937
4.9385	0.943676
4.939	0.934381
4.9395	0.931075
4.94	0.940197
4.9405	0.942818
4.941	0.937563
4.9415	0.922401
4.942	0.864702
4.9425	0.680035
4.943	0.476675
4.9435	0.595632
4.944	0.821858
4.9445	0.911901
4.945	0.932465
4.9455	0.937691
4.946	0.940764
4.9465	0.934871
4.947	0.924894
4.9475	0.931997
4.948	0.93824
4.9485	0.932031
4.949	0.919788
4.9495	0.917991
4.95	0.916716
4.9505	0.896275
4.951	0.867528
4.9515	0.813113
4.952	0.63467
4.9525	0.352666
4.953	0.301401
4.9535	0.453078
4.954	0.384749
4.9545	0.224131
4.955	0.359283
4.9555	0.623898
4.956	0.743806
4.9565	0.729632
4.957	0.603111
4.9575	0.355145
4.958	0.122114
4.9585	1.03E-01
4.959	0.319186
4.9595	0.590557
4.96	0.759148
4.9605	0.838973
4.961	0.879339
4.9615	0.900219
4.962	0.906092
4.9625	0.908426
4.963	0.921155
4.9635	0.930954
4.964	0.93281
4.9645	0.938118
4.965	0.944793
4.9655	0.946198
4.966	0.941226
4.9665	0.938569
4.967	0.946538
4.9675	0.94944
4.968	0.947418
4.9685	0.949241
4.969	0.951885
4.9695	0.949441
4.97	0.943022
4.9705	0.944083
4.971	0.951406
4.9715	0.952846
4.972	0.950576
4.9725	0.945855
4.973	0.944642
4.9735	0.947212
4.974	0.942624
4.9745	0.940627
4.975	0.937986
4.9755	0.9111
4.976	0.794167
4.9765	0.560082
4.977	0.540523
4.9775	0.768057
4.978	0.892276
4.9785	0.921928
4.979	0.922366
4.9795	0.887529
4.98	0.76163
4.9805	0.51548
4.981	0.463015
4.9815	0.704723
4.982	0.872025
4.9825	0.9243
4.983	0.941922
4.9835	0.94945
4.984	0.953297
4.9845	0.954431
4.985	0.950038
4.9855	0.928634
4.986	0.912014
4.9865	0.93575
4.987	0.954486
4.9875	0.957139
4.988	0.957439
4.9885	0.958222
4.989	0.957685
4.9895	0.95552
4.99	0.954784
4.9905	0.955857
4.991	0.954518
4.9915	0.95274
4.992	0.953352
4.9925	0.953887
4.993	0.954374
4.9935	0.953838
4.994	0.955192
4.9945	0.957344
4.995	0.957338
4.9955	0.956766
4.996	0.956659
4.9965	0.956121
4.997	0.952803
4.9975	0.946751
4.998	0.945695
4.9985	0.94809
4.999	0.944973
4.9995	0.930308
5	0.905678
5.0005	0.897275
5.001	0.880048
5.0015	0.79251
5.002	0.559927
5.0025	0.284527
5.003	0.331885
5.0035	0.628523
5.004	0.824488
5.0045	0.895671
5.005	0.921302
5.0055	0.932471
5.006	0.938274
5.0065	0.942058
5.007	0.944301
5.0075	0.944908
5.008	0.944168
5.0085	0.942764
5.009	0.942466
5.0095	0.942329
5.01	0.940955
5.0105	0.939189
5.011	0.936418
5.0115	0.933333
5.012	0.930397
5.0125	0.926671
5.013	0.921364
5.0135	0.914131
5.014	0.904061
5.0145	0.889487
5.015	0.866223
5.0155	0.820101
5.016	0.69777
5.0165	0.444845
5.017	0.268393
5.0175	0.278051
5.018	0.180878
5.0185	4.87E-02
5.019	1.47E-02
5.0195	1.88E-02
5.02	1.25E-02
5.0205	2.33E-02
5.021	0.123504
5.0215	0.333042
5.022	0.545156
5.0225	0.685585
5.023	0.767114
5.0235	0.8151
5.024	0.843741
5.0245	0.859591
5.025	0.865577
5.0255	0.86779
5.026	0.86665
5.0265	0.853143
5.027	0.818735
5.0275	0.741389
5.028	0.573428
5.0285	0.305092
5.029	1.01E-01
5.0295	0.139077
5.03	0.386851
5.0305	0.637366
5.031	0.765253
5.0315	0.790239
5.032	0.806341
5.0325	0.865505
5.033	0.906019
5.0335	0.921435
5.034	0.92975
5.0345	0.932576
5.035	0.926502
5.0355	0.929745
5.036	0.943155
5.0365	0.949254
5.037	0.950878
5.0375	0.951658
5.038	0.949622
5.0385	0.936355
5.039	0.920976
5.0395	0.932424
5.04	0.949959
5.0405	0.956517
5.041	0.957705
5.0415	0.957287
5.042	0.95363
5.0425	0.942497
5.043	0.939406
5.0435	0.948586
5.044	0.95516
5.0445	0.956864
5.045	0.95318
5.0455	0.951137
5.046	0.955068
5.0465	0.95501
5.047	0.94981
5.0475	0.946384
5.048	0.916469
5.0485	0.871038
5.049	0.904542
5.0495	0.949579
5.05	0.959664
5.0505	0.961227
5.051	0.962176
5.0515	0.9626
5.052	0.962394
5.0525	0.961366
5.053	0.961091
5.0535	0.961789
5.054	0.961486
5.0545	0.960751
5.055	0.960685
5.0555	0.958613
5.056	0.948626
5.0565	0.936084
5.057	0.943618
5.0575	0.953783
5.058	0.952895
5.0585	0.944089
5.059	0.915451
5.0595	0.799345
5.06	0.592199
5.0605	0.611573
5.061	0.820082
5.0615	0.921458
5.062	0.944238
5.0625	0.949789
5.063	0.953493
5.0635	0.957024
5.064	0.958564
5.0645	0.95901
5.065	0.959471
5.0655	0.959674
5.066	0.959622
5.0665	0.958613
5.067	0.956313
5.0675	0.956274
5.068	0.957425
5.0685	0.957525
5.069	0.957205
5.0695	0.956531
5.07	0.956222
5.0705	0.955285
5.071	0.952106
5.0715	0.949696
5.072	0.951139
5.0725	0.951503
5.073	0.950319
5.0735	0.948636
5.074	0.946451
5.0745	0.943146
5.075	0.935826
5.0755	0.92648
5.076	0.92497
5.0765	0.9224
5.077	0.915663
5.0775	0.906511
5.078	0.894349
5.0785	0.882638
5.079	0.864105
5.0795	0.830224
5.08	0.779593
5.0805	0.699957
5.081	0.567632
5.0815	0.368915
5.082	0.152373
5.0825	3.33E-02
5.083	3.24E-02
5.0835	0.139491
5.084	0.308104
5.0845	0.388936
5.085	0.287746
5.0855	0.117528
5.086	0.112781
5.0865	0.330717
5.087	0.589606
5.0875	0.743996
5.088	0.813889
5.0885	0.853245
5.089	0.883809
5.0895	0.902303
5.09	0.913597
5.0905	0.921174
5.091	0.92604
5.0915	0.929608
5.092	0.928314
5.0925	0.924366
5.093	0.931559
5.0935	0.938905
5.094	0.940615
5.0945	0.940447
5.095	0.93895
5.0955	0.935499
5.096	0.925724
5.0965	0.901206
5.097	0.87324
5.0975	0.831763
5.098	0.685959
5.0985	0.395294
5.099	0.231374
5.0995	0.43236
5.1	0.706697
5.1005	0.837834
5.101	0.885507
5.1015	0.915104
5.102	0.929418
5.1025	0.921554
5.103	0.911067
5.1035	0.928023
5.104	0.944396
5.1045	0.944946
5.105	0.93549
5.1055	0.936259
5.106	0.946
5.1065	0.947128
5.107	0.936507
5.1075	0.885477
5.108	0.8002
5.1085	0.822367
5.109	0.880559
5.1095	0.861374
5.11	0.860741
5.1105	0.880122
5.111	0.812282
5.1115	0.612638
5.112	0.532109
5.1125	0.704839
5.113	0.802294
5.1135	0.772869
5.114	0.640663
5.1145	0.371727
5.115	0.159264
5.1155	0.264811
5.116	0.560233
5.1165	0.766218
5.117	0.855983
5.1175	0.890452
5.118	0.906112
5.1185	0.92417
5.119	0.935599
5.1195	0.940699
5.12	0.943852
5.1205	0.945874
5.121	0.946598
5.1215	0.943966
5.122	0.937944
5.1225	0.940022
5.123	0.945949
5.1235	0.946675
5.124	0.940895
5.1245	0.909244
5.125	0.84042
5.1255	0.841653
5.126	0.904977
5.1265	0.92989
5.127	0.931358
5.1275	0.916591
5.128	0.907075
5.1285	0.919153
5.129	0.915327
5.1295	0.855773
5.13	0.756554
5.1305	0.77965
5.131	0.876706
5.1315	0.913685
5.132	0.917197
5.1325	0.913566
5.133	0.907123
5.1335	0.897963
5.134	0.884926
5.1345	0.865551
5.135	0.837261
5.1355	0.792602
5.136	0.710039
5.1365	0.5506
5.137	0.303687
5.1375	9.65E-02
5.138	7.11E-02
5.1385	0.211109
5.139	0.343676
5.1395	0.298077
5.14	0.13428
5.1405	5.61E-02
5.141	0.163209
5.1415	0.389938
5.142	0.574247
5.1425	0.662804
5.143	0.689216
5.1435	0.680664
5.144	0.650805
5.1445	0.596931
5.145	0.508603
5.1455	0.379689
5.146	0.220621
5.1465	8.26E-02
5.147	1.59E-02
5.1475	1.31E-03
5.148	1.01E-03
5.1485	1.14E-02
5.149	5.17E-02
5.1495	9.48E-02
5.15	9.14E-02
5.1505	0.166765
5.151	0.386731
5.1515	0.580418
5.152	0.689311
5.1525	0.752667
5.153	0.788079
5.1535	0.792783
5.154	0.79732
5.1545	0.839382
5.155	0.868927
5.1555	0.875149
5.156	0.874332
5.1565	0.859393
5.157	0.844333
5.1575	0.870471
5.158	0.88916
5.1585	0.903776
5.159	0.915804
5.1595	0.902838
5.16	0.87588
5.1605	0.894148
5.161	0.917306
5.1615	0.896144
5.162	0.855441
5.1625	0.863486
5.163	0.905576
5.1635	0.926071
5.164	0.92099
5.1645	0.922015
5.165	0.933149
5.1655	0.9364
5.166	0.934677
5.1665	0.928043
5.167	0.91729
5.1675	0.915475
5.168	0.907974
5.1685	0.894542
5.169	0.89159
5.1695	0.882483
5.17	0.861588
5.1705	0.83016
5.171	0.781875
5.1715	0.696321
5.172	0.524731
5.1725	0.275532
5.173	0.171209
5.1735	0.27732
5.174	0.375105
5.1745	0.474262
5.175	0.639085
5.1755	0.730302
5.176	0.808536
5.1765	0.896941
5.177	0.928046
5.1775	0.935243
5.178	0.937098
5.1785	0.93376
5.179	0.929967
5.1795	0.93354
5.18	0.939118
5.1805	0.941676
5.181	0.941944
5.1815	0.941215
5.182	0.938439
5.1825	0.926806
5.183	0.91059
5.1835	0.91955
5.184	0.933762
5.1845	0.936408
5.185	0.935433
5.1855	0.933447
5.186	0.927526
5.1865	0.899029
5.187	0.844304
5.1875	0.852889
5.188	0.90139
5.1885	0.916521
5.189	0.91361
5.1895	0.89584
5.19	0.865795
5.1905	0.859346
5.191	0.838944
5.1915	0.816492
5.192	0.851894
5.1925	0.87236
5.193	0.866613
5.1935	0.850846
5.194	0.816012
5.1945	0.762659
5.195	0.718238
5.1955	0.668653
5.196	0.664653
5.1965	0.652747
5.197	0.582618
5.1975	0.468563
5.198	0.315789
5.1985	0.153303
5.199	4.33E-02
5.1995	5.81E-03
5.2	1.83E-03
5.2005	8.34E-03
5.201	1.50E-02
5.2015	9.29E-03
5.202	9.06E-03
5.2025	5.57E-02
5.203	0.180763
5.2035	0.316216
5.204	0.433747
5.2045	0.565649
5.205	0.644667
5.2055	0.66758
5.206	0.678929
5.2065	0.700391
5.207	0.697829
5.2075	0.639604
5.208	0.560924
5.2085	0.554989
5.209	0.518919
5.2095	0.470114
5.21	0.450375
5.2105	0.39405
5.211	0.291041
5.2115	0.170882
5.212	6.89E-02
5.2125	1.58E-02
5.213	1.83E-03
5.2135	1.08E-04
5.214	3.09E-04
5.2145	4.48E-03
5.215	2.82E-02
5.2155	8.79E-02
5.216	0.167237
5.2165	0.276848
5.217	0.411716
5.2175	0.518159
5.218	0.597336
5.2185	0.655864
5.219	0.697956
5.2195	0.715116
5.22	0.67041
5.2205	0.632357
5.221	0.69738
5.2215	0.760204
5.222	0.802694
5.2225	0.779075
5.223	0.719203
5.2235	0.755664
5.224	0.752767
5.2245	0.651332
5.225	0.690532
5.2255	0.813554
5.226	0.86272
5.2265	0.87157
5.227	0.871121
5.2275	0.859094
5.228	0.794941
5.2285	0.679974
5.229	0.707901
5.2295	0.805163
5.23	0.814598
5.2305	0.791949
5.231	0.789551
5.2315	0.776688
5.232	0.723773
5.2325	0.612095
5.233	0.523828
5.2335	0.472503
5.234	0.342367
5.2345	0.1691
5.235	4.74E-02
5.2355	6.55E-03
5.236	7.75E-03
5.2365	4.91E-02
5.237	0.168747
5.2375	0.341071
5.238	0.476163
5.2385	0.544301
5.239	0.54858
5.2395	0.478912
5.24	0.323079
5.2405	0.135778
5.241	2.96E-02
5.2415	3.03E-02
5.242	0.150995
5.2425	0.377171
5.243	0.576021
5.2435	0.69456
5.244	0.757063
5.2445	0.767715
5.245	0.739954
5.2455	0.775633
5.246	0.832666
5.2465	0.85286
5.247	0.866049
5.2475	0.870424
5.248	0.862135
5.2485	0.827327
5.249	0.742444
5.2495	0.64012
5.25	0.498508
5.2505	0.284853
5.251	0.119815
5.2515	0.205465
5.252	0.477496
5.2525	0.687501
5.253	0.757373
5.2535	0.792981
5.254	0.854976
5.2545	0.887883
5.255	0.890688
5.2555	0.859654
5.256	0.83506
5.2565	0.860761
5.257	0.847967
5.2575	0.757816
5.258	0.603905
5.2585	0.605015
5.259	0.799708
5.2595	0.899866
5.26	0.920153
5.2605	0.920451
5.261	0.901812
5.2615	0.880922
5.262	0.899792
5.2625	0.920987
5.263	0.926672
5.2635	0.927375
5.264	0.926117
5.2645	0.920785
5.265	0.904748
5.2655	0.884158
5.266	0.890971
5.2665	0.902339
5.267	0.903539
5.2675	0.905965
5.268	0.902359
5.2685	0.883389
5.269	0.843319
5.2695	0.778728
5.27	0.70854
5.2705	0.745117
5.271	0.820201
5.2715	0.835816
5.272	0.818144
5.2725	0.788919
5.273	0.745016
5.2735	0.676548
5.274	0.58474
5.2745	0.453281
5.275	0.273539
5.2755	0.10871
5.276	2.28E-02
5.2765	3.97E-03
5.277	1.85E-02
5.2775	7.66E-02
5.278	0.20942
5.2785	0.406711
5.279	0.562877
5.2795	0.642087
5.28	0.614327
5.2805	0.51932
5.281	0.599508
5.2815	0.736472
5.282	0.781677
5.2825	0.793836
5.283	0.763132
5.2835	0.672613
5.284	0.668955
5.2845	0.748824
5.285	0.770958
5.2855	0.75529
5.286	0.728937
5.2865	0.700281
5.287	0.669296
5.2875	0.628641
5.288	0.570958
5.2885	0.495227
5.289	0.400704
5.2895	0.28772
5.29	0.168035
5.2905	7.03E-02
5.291	1.79E-02
5.2915	2.31E-03
5.292	1.32E-04
5.2925	2.10E-04
5.293	3.17E-03
5.2935	2.02E-02
5.294	6.80E-02
5.2945	0.162213
5.295	0.292219
5.2955	0.412296
5.296	0.507662
5.2965	0.582032
5.297	0.63924
5.2975	0.683641
5.298	0.718727
5.2985	0.747139
5.299	0.770405
5.2995	0.78813
5.3	0.801462
5.3005	0.811102
5.301	0.816189
5.3015	0.815541
5.302	0.798102
5.3025	0.746982
5.303	0.694758
5.3035	0.612531
5.304	0.431733
5.3045	0.377655
5.305	0.368184
5.3055	0.210239
5.306	6.18E-02
5.3065	5.85E-02
5.307	0.218634
5.3075	0.459991
5.308	0.644891
5.3085	0.748076
5.309	0.804119
5.3095	0.837849
5.31	0.859492
5.3105	0.873364
5.311	0.882357
5.3115	0.889603
5.312	0.89657
5.3125	0.902123
5.313	0.905244
5.3135	0.907363
5.314	0.910507
5.3145	0.912865
5.315	0.913665
5.3155	0.911693
5.316	0.907479
5.3165	0.907026
5.317	0.910934
5.3175	0.91028
5.318	0.893637
5.3185	0.855399
5.319	0.794297
5.3195	0.66954
5.32	0.580893
5.3205	0.598528
5.321	0.586659
5.3215	0.667135
5.322	0.802619
5.3225	0.880771
5.323	0.907348
5.3235	0.910907
5.324	0.910066
5.3245	0.906426
5.325	0.895014
5.3255	0.885602
5.326	0.893483
5.3265	0.898505
5.327	0.891593
5.3275	0.860599
5.328	0.737383
5.3285	0.532609
5.329	0.567726
5.3295	0.771763
5.33	0.861844
5.3305	0.88015
5.331	0.883808
5.3315	0.883197
5.332	0.880397
5.3325	0.876457
5.333	0.873363
5.3335	0.870819
5.334	0.866985
5.3345	0.861827
5.335	0.85553
5.3355	0.849422
5.336	0.842795
5.3365	0.834571
5.337	0.825479
5.3375	0.815992
5.338	0.80592
5.3385	0.79428
5.339	0.780521
5.3395	0.764383
5.34	0.745597
5.3405	0.724694
5.341	0.701056
5.3415	0.67329
5.342	0.639268
5.3425	0.596785
5.343	0.544061
5.3435	0.473081
5.344	0.365656
5.3445	0.212224
5.345	7.34E-02
5.3455	3.44E-02
5.346	6.53E-02
5.3465	7.73E-02
5.347	5.01E-02
5.3475	1.93E-02
5.348	4.22E-03
5.3485	4.59E-04
5.349	2.14E-05
5.3495	3.80E-07
5.35	1.55E-06
5.3505	3.22E-05
5.351	3.46E-04
5.3515	1.39E-03
5.352	1.94E-03
5.3525	9.54E-04
5.353	1.64E-04
5.3535	1.67E-05
5.354	2.45E-04
5.3545	3.04E-03
5.355	1.62E-02
5.3555	4.31E-02
5.356	6.37E-02
5.3565	5.42E-02
5.357	2.45E-02
5.3575	5.09E-03
5.358	1.51E-03
5.3585	1.31E-02
5.359	6.66E-02
5.3595	0.177872
5.36	0.309878
5.3605	0.42469
5.361	0.512741
5.3615	0.578184
5.362	0.62711
5.3625	0.662534
5.363	0.678942
5.3635	0.651641
5.364	0.596784
5.3645	0.579763
5.365	0.669898
5.3655	0.766674
5.366	0.799502
5.3665	0.810587
5.367	0.813222
5.3675	0.801737
5.368	0.787045
5.3685	0.800973
5.369	0.827327
5.3695	0.832391
5.37	0.821513
5.3705	0.798636
5.371	0.719995
5.3715	0.512708
5.372	0.39833
5.3725	0.586001
5.373	0.677416
5.3735	0.558594
5.374	0.601592
5.3745	0.774716
5.375	0.834743
5.3755	0.818483
5.376	0.715948
5.3765	0.48223
5.377	0.346596
5.3775	0.503868
5.378	0.704139
5.3785	0.755717
5.379	0.702551
5.3795	0.545923
5.38	0.288565
5.3805	9.56E-02
5.381	0.127729
5.3815	0.357926
5.382	0.6102
5.3825	0.746588
5.383	0.798067
5.3835	0.826381
5.384	0.850286
5.3845	0.862014
5.385	0.864602
5.3855	0.861673
5.386	0.836057
5.3865	0.717932
5.387	0.52873
5.3875	0.575322
5.388	0.770893
5.3885	0.855823
5.389	0.874183
5.3895	0.879852
5.39	0.882736
5.3905	0.884222
5.391	0.883427
5.3915	0.879826
5.392	0.872799
5.3925	0.841977
5.393	0.752735
5.3935	0.706868
5.394	0.784863
5.3945	0.845224
5.395	0.859633
5.3955	0.857098
5.396	0.849293
5.3965	0.835831
5.397	0.796968
5.3975	0.671093
5.398	0.4194
5.3985	0.317758
5.399	0.533122
5.3995	0.730209
5.4	0.797665
5.4005	0.81651
5.401	0.82123
5.4015	0.819648
5.402	0.816003
5.4025	0.810899
5.403	0.804606
5.4035	0.79737
5.404	0.788201
5.4045	0.777225
5.405	0.763885
5.4055	0.747722
5.406	0.725823
5.4065	0.699827
5.407	0.672567
5.4075	0.639139
5.408	0.578112
5.4085	0.442277
5.409	0.339053
5.4095	0.337629
5.41	0.270127
5.4105	0.145
5.411	4.64E-02
5.4115	7.28E-03
5.412	1.80E-03
5.4125	1.38E-02
5.413	6.28E-02
5.4135	0.150285
5.414	0.232846
5.4145	0.281077
5.415	0.294463
5.4155	0.279214
5.416	0.241382
5.4165	0.173106
5.417	8.10E-02
5.4175	2.30E-02
5.418	7.21E-03
5.4185	2.74E-03
5.419	1.01E-03
5.4195	5.86E-04
5.42	3.79E-04
5.4205	9.77E-05
5.421	8.32E-06
5.4215	2.22E-07
5.422	7.94E-10
5.4225	0
5.423	1.61E-08
5.4235	1.06E-06
5.424	3.90E-05
5.4245	6.83E-04
5.425	5.12E-03
5.4255	1.92E-02
5.426	4.54E-02
5.4265	8.02E-02
5.427	0.110041
5.4275	0.105737
5.428	5.90E-02
5.4285	4.16E-02
5.429	0.125891
5.4295	0.265861
5.43	0.374599
5.4305	0.442996
5.431	0.491721
5.4315	0.529858
5.432	0.559312
5.4325	0.583578
5.433	0.602253
5.4335	0.604714
5.434	0.610295
5.4345	0.638814
5.435	0.660054
5.4355	0.664002
5.436	0.638797
5.4365	0.565093
5.437	0.486464
5.4375	0.513746
5.438	0.609321
5.4385	0.631572
5.439	0.588669
5.4395	0.554989
5.44	0.542653
5.4405	0.490726
5.441	0.38769
5.4415	0.242746
5.442	9.97E-02
5.4425	2.12E-02
5.443	2.73E-03
5.4435	1.21E-02
5.444	6.87E-02
5.4445	0.194371
5.445	0.340362
5.4455	0.446537
5.446	0.470997
5.4465	0.370691
5.447	0.306691
5.4475	0.459435
5.448	0.605772
5.4485	0.646867
5.449	0.608268
5.4495	0.465261
5.45	0.302754
5.4505	0.278291
5.451	0.445762
5.4515	0.586433
5.452	0.620349
5.4525	0.63158
5.453	0.633208
5.4535	0.600596
5.454	0.484288
5.4545	0.302172
5.455	0.309812
5.4555	0.455846
5.456	0.510318
5.4565	0.497744
5.457	0.464488
5.4575	0.421681
5.458	0.375691
5.4585	0.326494
5.459	0.273029
5.4595	0.215021
5.46	0.154852
5.4605	9.82E-02
5.461	5.16E-02
5.4615	2.05E-02
5.462	5.46E-03
5.4625	8.51E-04
5.463	6.57E-05
5.4635	2.09E-06
5.464	1.85E-08
5.4645	0
5.465	0
5.4655	0
5.466	0
5.4665	6.97E-09
5.467	1.44E-06
5.4675	5.49E-05
5.468	8.03E-04
5.4685	5.86E-03
5.469	2.38E-02
5.4695	5.79E-02
5.47	1.03E-01
5.4705	0.149501
5.471	0.196605
5.4715	0.242144
5.472	0.274177
5.4725	0.292813
5.473	0.298419
5.4735	0.291278
5.474	0.271117
5.4745	0.237385
5.475	0.191137
5.4755	0.136471
5.476	8.11E-02
5.4765	3.60E-02
5.477	1.04E-02
5.4775	1.65E-03
5.478	1.24E-04
5.4785	3.72E-06
5.479	1.68E-06
5.4795	6.86E-05
5.48	1.09E-03
5.4805	7.98E-03
5.481	3.16E-02
5.4815	7.97E-02
5.482	0.147282
5.4825	0.222186
5.483	0.294084
5.4835	0.356068
5.484	0.402434
5.4845	0.422017
5.485	0.383996
5.4855	0.249527
5.486	0.107364
5.4865	0.146996
5.487	0.33646
5.4875	0.460745
5.488	0.443831
5.4885	0.371481
5.489	0.353741
5.4895	0.451303
5.49	0.454257
5.4905	0.45556
5.491	0.610214
5.4915	0.722933
5.492	0.758498
5.4925	0.764244
5.493	0.744596
5.4935	0.737135
5.494	0.77386
5.4945	0.802163
5.495	0.812214
5.4955	0.816795
5.496	0.82072
5.4965	0.824449
5.497	0.824874
5.4975	0.822
5.498	0.821645
5.4985	0.822118
5.499	0.819522
5.4995	0.810912
5.5	0.792735
5.5005	0.746908
5.501	0.607591
5.5015	0.350042
5.502	0.150166
5.5025	0.20472
5.503	0.427783
5.5035	0.629544
5.504	0.74596
5.5045	0.788788
5.505	0.796614
5.5055	0.759727
5.506	0.635972
5.5065	0.562111
5.507	0.675411
5.5075	0.763272
5.508	0.773771
5.5085	0.790768
5.509	0.809816
5.5095	0.805819
5.51	0.773688
5.5105	0.742328
5.511	0.7609
5.5115	0.78036
5.512	0.77846
5.5125	0.771482
5.513	0.758666
5.5135	0.738103
5.514	0.711502
5.5145	0.68151
5.515	0.633943
5.5155	0.561697
5.516	0.47695
5.5165	0.346245
5.517	0.173951
5.5175	4.81E-02
5.518	1.58E-02
5.5185	5.81E-02
5.519	0.144494
5.5195	0.200148
5.52	0.187682
5.5205	0.129403
5.521	6.29E-02
5.5215	1.90E-02
5.522	3.02E-03
5.5225	2.14E-04
5.523	2.01E-05
5.5235	4.19E-04
5.524	5.00E-03
5.5245	2.81E-02
5.525	8.64E-02
5.5255	0.174583
5.526	0.265016
5.5265	0.318374
5.527	0.351643
5.5275	0.437714
5.528	0.496214
5.5285	0.451573
5.529	0.388703
5.5295	0.428769
5.53	0.433644
5.5305	0.344511
5.531	0.182354
5.5315	5.16E-02
5.532	2.38E-02
5.5325	0.105042
5.533	0.28382
5.5335	0.460632
5.534	0.572491
5.5345	0.631433
5.535	0.653728
5.5355	0.668444
5.536	0.689501
5.5365	0.690172
5.537	0.65844
5.5375	0.618392
5.538	0.578816
5.5385	0.464218
5.539	0.254952
5.5395	8.48E-02
5.54	9.94E-02
5.5405	0.280821
5.541	0.469088
5.5415	0.572535
5.542	0.621646
5.5425	0.637255
5.543	0.632052
5.5435	0.614417
5.544	0.583054
5.5445	0.540161
5.545	0.482014
5.5455	0.398131
5.546	0.283048
5.5465	0.151219
5.547	4.98E-02
5.5475	8.17E-03
5.548	1.62E-03
5.5485	9.93E-03
5.549	3.48E-02
5.5495	6.45E-02
5.55	8.33E-02
5.5505	6.32E-02
5.551	2.45E-02
5.5515	1.16E-02
5.552	4.24E-02
5.5525	9.98E-02
5.553	0.129045
5.5535	0.111765
5.554	7.10E-02
5.5545	3.21E-02
5.555	9.24E-03
5.5555	1.46E-03
5.556	1.07E-04
5.5565	3.12E-06
5.557	3.68E-06
5.5575	1.21E-04
5.558	1.57E-03
5.5585	9.33E-03
5.559	2.80E-02
5.5595	5.06E-02
5.56	9.27E-02
5.5605	0.166421
5.561	0.21793
5.5615	0.263013
5.562	0.322565
5.5625	0.355415
5.563	0.358217
5.5635	0.338159
5.564	0.277675
5.5645	0.157393
5.565	6.20E-02
5.5655	7.11E-02
5.566	9.37E-02
5.5665	5.58E-02
5.567	1.39E-02
5.5675	1.28E-03
5.568	1.41E-04
5.5685	2.09E-03
5.569	1.44E-02
5.5695	3.72E-02
5.57	4.02E-02
5.5705	2.32E-02
5.571	3.59E-02
5.5715	8.43E-02
5.572	0.115328
5.5725	0.111089
5.573	8.84E-02
5.5735	5.94E-02
5.574	3.30E-02
5.5745	1.61E-02
5.575	6.45E-03
5.5755	1.73E-03
5.576	2.78E-04
5.5765	2.29E-05
5.577	7.78E-07
5.5775	7.22E-09
5.578	0
5.5785	0
5.579	3.81E-10
5.5795	1.00E-07
5.58	3.67E-06
5.5805	4.45E-05
5.581	2.12E-04
5.5815	4.49E-04
5.582	4.34E-04
5.5825	1.81E-04
5.583	2.91E-05
5.5835	4.39E-06
5.584	1.04E-04
5.5845	1.47E-03
5.585	9.23E-03
5.5855	2.92E-02
5.586	4.74E-02
5.5865	4.28E-02
5.587	6.62E-02
5.5875	0.162174
5.588	0.26028
5.5885	0.322547
5.589	0.36503
5.5895	0.394507
5.59	0.393628
5.5905	0.31479
5.591	0.197973
5.5915	0.142655
5.592	0.190921
5.5925	0.300216
5.593	0.403095
5.5935	0.504761
5.594	0.557585
5.5945	0.577827
5.595	0.587447
5.5955	0.590602
5.596	0.57627
5.5965	0.558556
5.597	0.567986
5.5975	0.57591
5.598	0.565177
5.5985	0.537063
5.599	0.487171
5.5995	0.420862
5.6	0.346836
